* Measurement data measured by REW V5.20.13
* Source: EXCL: Microphone (USB Sound Device        ), MICROPHONE (Master Volume), L, volume: 0.250
* Format: 256k Log Swept Sine, 1 sweep at -6.0 dBFS with no timing reference
* Dated: Sep 14, 2023 6:22:10 PM
* REW Settings:
*  C-weighting compensation: Off
*  Target level: 75.0 dB
* Note: ; 
* Measurement: n.Black f.Gold Foam L
* Smoothing: None
* Frequency Step: 1/48 octave
* Start Frequency: 1.000 Hz
*
* Freq(Hz)	SPL(dB)	Phase(degrees)
1.000000	63.232	-153.8703
1.015000	63.301	-155.3020
1.030000	63.368	-156.7288
1.044000	63.429	-158.0570
1.060000	63.496	-159.5722
1.075000	63.557	-160.9914
1.090000	63.617	-162.4106
1.106000	63.678	-163.9244
1.120000	63.730	-165.2416
1.138000	63.793	-166.9228
1.150000	63.834	-168.0361
1.172000	63.904	-170.0620
1.180000	63.929	-170.7939
1.206000	64.004	-173.1556
1.220000	64.042	-174.4166
1.241000	64.095	-176.2948
1.250000	64.116	-177.0948
1.265000	64.150	-178.4221
1.280000	64.182	-179.7416
1.315000	64.249	177.2083
1.320000	64.258	176.7758
1.340000	64.290	175.0532
1.360000	64.318	173.3426
1.380000	64.343	171.6434
1.400000	64.365	169.9552
1.430000	64.391	167.4425
1.450000	64.404	165.7797
1.475000	64.415	163.7141
1.500000	64.422	161.6604
1.525000	64.423	159.6195
1.550000	64.420	157.5931
1.575000	64.411	155.5828
1.600000	64.397	153.5902
1.625000	64.377	151.6170
1.650000	64.351	149.6647
1.675000	64.319	147.7352
1.700000	64.281	145.8298
1.725000	64.236	143.9504
1.750000	64.185	142.0985
1.775000	64.127	140.2758
1.800000	64.063	138.4838
1.825000	63.991	136.7243
1.850000	63.912	134.9863
1.875000	63.829	133.2444
1.900000	63.740	131.5051
1.925000	63.646	129.7760
1.950000	63.545	128.0647
1.975000	63.438	126.3790
2.000000	63.324	124.7264
2.030000	63.178	122.7980
2.060000	63.022	120.9417
2.090000	62.853	119.1706
2.120000	62.673	117.4982
2.140000	62.546	116.4445
2.180000	62.274	114.5020
2.200000	62.128	113.6202
2.240000	61.804	111.8643
2.270000	61.532	110.5368
2.300000	61.240	109.2409
2.330000	60.933	108.0135
2.360000	60.616	106.8911
2.400000	60.186	105.6216
2.430000	59.864	104.8871
2.470000	59.445	104.2680
2.500000	59.143	104.1214
2.540000	58.768	104.4192
2.580000	58.426	105.3798
2.620000	58.056	107.1712
2.650000	57.762	108.9915
2.690000	57.367	111.9155
2.720000	57.079	114.3870
2.760000	56.726	117.9152
2.800000	56.427	121.5513
2.850000	56.164	125.9851
2.900000	56.063	129.9807
2.950000	56.171	133.2993
3.000000	56.511	136.5515
3.040000	56.918	139.1543
3.070000	57.284	141.0601
3.110000	57.829	143.4820
3.150000	58.412	145.7021
3.200000	59.153	148.0846
3.250000	59.853	149.9002
3.300000	60.457	151.0092
3.350000	61.009	151.3069
3.400000	61.561	150.8941
3.450000	62.105	149.9303
3.500000	62.633	148.5751
3.550000	63.136	146.9880
3.600000	63.607	145.3286
3.650000	64.038	143.7565
3.700000	64.423	142.2758
3.750000	64.771	140.6204
3.820000	65.203	138.0810
3.870000	65.477	136.1778
3.950000	65.866	133.1185
4.000000	66.085	131.2770
4.060000	66.325	129.1862
4.120000	66.528	127.0921
4.180000	66.696	125.0065
4.250000	66.858	122.6373
4.310000	66.973	120.7068
4.370000	67.073	118.9111
4.440000	67.170	117.0048
4.500000	67.224	115.4736
4.550000	67.252	114.2773
4.620000	67.275	112.7435
4.680000	67.289	111.5781
4.750000	67.307	110.4162
4.820000	67.325	109.4960
4.870000	67.328	108.9849
4.940000	67.327	108.4404
5.000000	67.331	108.1031
5.080000	67.354	107.7892
5.150000	67.406	107.6077
5.220000	67.478	107.6191
5.300000	67.580	107.8198
5.380000	67.706	108.0913
5.450000	67.835	108.2809
5.520000	67.983	108.3477
5.600000	68.186	108.3900
5.700000	68.475	108.3819
5.800000	68.777	108.2091
5.900000	69.068	107.7726
6.000000	69.367	107.0708
6.080000	69.606	106.3694
6.150000	69.806	105.6873
6.220000	69.991	104.9686
6.300000	70.183	104.0755
6.400000	70.403	102.8200
6.500000	70.600	101.5121
6.600000	70.771	100.2614
6.700000	70.912	99.0448
6.800000	71.027	97.8434
6.900000	71.125	96.7238
7.000000	71.213	95.7452
7.100000	71.282	94.8870
7.200000	71.341	94.1334
7.300000	71.400	93.4788
7.400000	71.466	92.9372
7.500000	71.532	92.5204
7.620000	71.618	92.1015
7.750000	71.728	91.6556
7.880000	71.858	91.2719
8.000000	71.986	90.9002
8.120000	72.118	90.4315
8.250000	72.271	89.8464
8.380000	72.421	89.1841
8.500000	72.548	88.4899
8.620000	72.668	87.7106
8.750000	72.786	86.8291
8.850000	72.863	86.1529
9.000000	72.960	85.1050
9.120000	73.025	84.2899
9.250000	73.085	83.4721
9.380000	73.131	82.7003
9.500000	73.169	82.0372
9.620000	73.209	81.4346
9.750000	73.251	80.8424
9.880000	73.286	80.2782
10.000000	73.309	79.7772
10.150000	73.331	79.1790
10.300000	73.351	78.5566
10.440000	73.367	77.9528
10.600000	73.383	77.2354
10.750000	73.395	76.5223
10.900000	73.404	75.7810
11.060000	73.407	74.9884
11.200000	73.403	74.2874
11.380000	73.392	73.4091
11.500000	73.381	72.8458
11.720000	73.357	71.8521
11.800000	73.348	71.5060
12.060000	73.322	70.4249
12.200000	73.308	69.8528
12.410000	73.293	69.0059
12.500000	73.293	68.6394
12.650000	73.303	68.0241
12.800000	73.317	67.4091
13.150000	73.342	65.9835
13.200000	73.345	65.7857
13.400000	73.355	65.0109
13.600000	73.365	64.2674
13.800000	73.377	63.5611
14.000000	73.392	62.8724
14.300000	73.421	61.8596
14.500000	73.443	61.1744
14.750000	73.470	60.3069
15.000000	73.494	59.4312
15.250000	73.511	58.5752
15.500000	73.525	57.7613
15.750000	73.537	56.9978
16.000000	73.554	56.2844
16.250000	73.579	55.5935
16.500000	73.613	54.9101
16.750000	73.647	54.2123
17.000000	73.678	53.5023
17.250000	73.706	52.7893
17.500000	73.729	52.0881
17.750000	73.749	51.4145
18.000000	73.768	50.7671
18.250000	73.787	50.1438
18.500000	73.809	49.5275
18.750000	73.831	48.9114
19.000000	73.853	48.2894
19.250000	73.873	47.6652
19.500000	73.892	47.0453
19.750000	73.909	46.4344
20.000000	73.927	45.8351
20.299999	73.950	45.1235
20.600000	73.975	44.4134
20.900000	73.999	43.7003
21.200001	74.022	42.9893
21.400000	74.035	42.5238
21.799999	74.061	41.6204
22.000000	74.075	41.1823
22.400000	74.104	40.3207
22.700001	74.127	39.6733
23.000000	74.150	39.0199
23.299999	74.169	38.3711
23.600000	74.186	37.7399
24.000000	74.206	36.9383
24.299999	74.223	36.3612
24.700001	74.248	35.5992
25.000000	74.267	35.0172
25.400000	74.290	34.2233
25.799999	74.308	33.4276
26.200001	74.320	32.6513
26.500000	74.327	32.0851
26.900000	74.336	31.3461
27.200001	74.343	30.7986
27.600000	74.351	30.0746
28.000000	74.359	29.3546
28.500000	74.370	28.4489
29.000000	74.379	27.5275
29.500000	74.383	26.6071
30.000000	74.384	25.7164
30.400000	74.387	25.0253
30.700001	74.390	24.5101
31.100000	74.395	23.8176
31.500000	74.398	23.1222
32.000000	74.399	22.2677
32.500000	74.400	21.4382
33.000000	74.402	20.6162
33.500000	74.403	19.7897
34.000000	74.399	18.9740
34.500000	74.394	18.1868
35.000000	74.391	17.4204
35.500000	74.388	16.6521
36.000000	74.385	15.8727
36.500000	74.378	15.0926
37.000000	74.367	14.3304
37.500000	74.355	13.5970
38.200001	74.341	12.6041
38.700001	74.333	11.8942
39.500000	74.316	10.7543
40.000000	74.303	10.0697
40.599998	74.291	9.2787
41.200001	74.282	8.4827
41.799999	74.269	7.6737
42.500000	74.248	6.7578
43.099998	74.229	6.0146
43.700001	74.213	5.2896
44.400002	74.194	4.4437
45.000000	74.177	3.7177
45.500000	74.160	3.1228
46.200001	74.135	2.3214
46.799999	74.115	1.6581
47.500000	74.092	0.8923
48.200001	74.067	0.1390
48.700001	74.048	-0.3857
49.400002	74.021	-1.1034
50.000000	73.997	-1.7024
50.799999	73.965	-2.4773
51.500000	73.936	-3.1349
52.200001	73.907	-3.7693
53.000000	73.876	-4.4796
53.799999	73.844	-5.1895
54.500000	73.815	-5.7985
55.200001	73.783	-6.3920
56.000000	73.745	-7.0365
57.000000	73.701	-7.7965
58.000000	73.655	-8.5616
59.000000	73.606	-9.2737
60.000000	73.562	-9.9686
60.799999	73.523	-10.5228
61.500000	73.488	-10.9778
62.200001	73.455	-11.4174
63.000000	73.417	-11.9200
64.000000	73.365	-12.5192
65.000000	73.316	-13.0831
66.000000	73.266	-13.6484
67.000000	73.213	-14.1899
68.000000	73.160	-14.7052
69.000000	73.108	-15.1964
70.000000	73.057	-15.6938
71.000000	73.001	-16.1753
72.000000	72.947	-16.6277
73.000000	72.893	-17.0637
74.000000	72.840	-17.4773
75.000000	72.789	-17.8882
76.199997	72.727	-18.3551
77.500000	72.659	-18.8605
78.800003	72.592	-19.3096
80.000000	72.530	-19.7451
81.199997	72.466	-20.1390
82.500000	72.398	-20.5580
83.800003	72.330	-20.9708
85.000000	72.266	-21.3201
86.199997	72.206	-21.6638
87.500000	72.140	-22.0271
88.500000	72.089	-22.2952
90.000000	72.014	-22.6627
91.199997	71.953	-22.9582
92.500000	71.889	-23.2534
93.800003	71.823	-23.5443
95.000000	71.763	-23.7885
96.199997	71.703	-24.0303
97.500000	71.641	-24.2755
98.800003	71.577	-24.5328
100.000000	71.517	-24.7568
101.500000	71.444	-25.0028
103.000000	71.370	-25.2610
104.400002	71.306	-25.4489
106.000000	71.234	-25.7010
107.500000	71.162	-25.9193
109.000000	71.094	-26.0892
110.599998	71.025	-26.3055
112.000000	70.958	-26.4934
113.800003	70.879	-26.6860
115.000000	70.822	-26.8201
117.199997	70.729	-27.0232
118.000000	70.695	-27.1030
120.599998	70.585	-27.3276
122.000000	70.524	-27.4553
124.099998	70.432	-27.5925
125.000000	70.396	-27.6489
126.500000	70.340	-27.7622
128.000000	70.281	-27.8429
131.500000	70.155	-27.9932
132.000000	70.138	-28.0183
134.000000	70.064	-28.1129
136.000000	69.992	-28.1842
138.000000	69.921	-28.2666
140.000000	69.850	-28.3131
143.000000	69.753	-28.3856
145.000000	69.687	-28.4263
147.500000	69.605	-28.4564
150.000000	69.523	-28.4758
152.500000	69.446	-28.4861
155.000000	69.369	-28.4769
157.500000	69.294	-28.4731
160.000000	69.215	-28.4568
162.500000	69.126	-28.4316
165.000000	69.040	-28.3825
167.500000	68.955	-28.3027
170.000000	68.872	-28.2339
172.500000	68.788	-28.1682
175.000000	68.705	-28.1082
177.500000	68.626	-28.0276
180.000000	68.550	-27.9509
182.500000	68.470	-27.8328
185.000000	68.396	-27.7300
187.500000	68.319	-27.6212
190.000000	68.248	-27.5103
192.500000	68.181	-27.3901
195.000000	68.108	-27.2725
197.500000	68.038	-27.1398
200.000000	67.968	-27.0010
203.000000	67.894	-26.8236
206.000000	67.822	-26.6490
209.000000	67.757	-26.5108
212.000000	67.688	-26.3273
214.000000	67.642	-26.1895
218.000000	67.548	-25.9121
220.000000	67.501	-25.7844
224.000000	67.417	-25.4913
227.000000	67.356	-25.3063
230.000000	67.293	-25.0723
233.000000	67.235	-24.8519
236.000000	67.174	-24.6268
240.000000	67.089	-24.3306
243.000000	67.032	-24.0790
247.000000	66.963	-23.8256
250.000000	66.910	-23.5781
254.000000	66.845	-23.2437
258.000000	66.773	-22.9120
262.000000	66.704	-22.6064
265.000000	66.654	-22.3574
269.000000	66.594	-21.9943
272.000000	66.555	-21.7585
276.000000	66.500	-21.4138
280.000000	66.439	-21.0724
285.000000	66.363	-20.6460
290.000000	66.297	-20.2340
295.000000	66.236	-19.7601
300.000000	66.172	-19.3284
304.000000	66.121	-18.9564
307.000000	66.078	-18.6959
311.000000	66.034	-18.3208
315.000000	65.985	-17.9258
320.000000	65.934	-17.5154
325.000000	65.879	-17.0396
330.000000	65.826	-16.5820
335.000000	65.773	-16.1387
340.000000	65.724	-15.7039
345.000000	65.680	-15.2636
350.000000	65.635	-14.7773
355.000000	65.590	-14.2988
360.000000	65.539	-13.7977
365.000000	65.497	-13.3454
370.000000	65.453	-12.8876
375.000000	65.414	-12.4430
382.000000	65.369	-11.7551
387.000000	65.333	-11.3068
395.000000	65.284	-10.5894
400.000000	65.247	-10.1713
406.000000	65.216	-9.5713
412.000000	65.177	-9.0249
418.000000	65.145	-8.4336
425.000000	65.103	-7.7634
431.000000	65.070	-7.2396
437.000000	65.039	-6.6926
444.000000	65.000	-6.0732
450.000000	64.978	-5.4734
455.000000	64.963	-5.0262
462.000000	64.928	-4.3969
468.000000	64.910	-3.8242
475.000000	64.889	-3.2086
482.000000	64.869	-2.6014
487.000000	64.855	-2.1451
494.000000	64.829	-1.5341
500.000000	64.811	-0.9014
508.000000	64.794	-0.1808
515.000000	64.780	0.4224
522.000000	64.767	1.0435
530.000000	64.752	1.7552
538.000000	64.738	2.4713
545.000000	64.733	3.1174
552.000000	64.724	3.7692
560.000000	64.716	4.4761
570.000000	64.701	5.3361
580.000000	64.707	6.2397
590.000000	64.702	7.1592
600.000000	64.699	8.0087
608.000000	64.704	8.7314
615.000000	64.697	9.3126
622.000000	64.706	9.9432
630.000000	64.711	10.6287
640.000000	64.724	11.5293
650.000000	64.731	12.4102
660.000000	64.751	13.2838
670.000000	64.770	14.1772
680.000000	64.786	14.9911
690.000000	64.809	15.8746
700.000000	64.830	16.7490
710.000000	64.854	17.6631
720.000000	64.877	18.5063
730.000000	64.904	19.3320
740.000000	64.935	20.1856
750.000000	64.966	21.0569
762.000000	65.002	22.1361
775.000000	65.048	23.2518
788.000000	65.097	24.4039
800.000000	65.146	25.4290
812.000000	65.187	26.5784
825.000000	65.248	27.8633
838.000000	65.328	29.1494
850.000000	65.417	30.2186
862.000000	65.521	31.0495
875.000000	65.628	31.9454
885.000000	65.699	32.5672
900.000000	65.805	33.6040
912.000000	65.884	34.4221
925.000000	65.976	35.3728
938.000000	66.073	36.2352
950.000000	66.171	37.0599
962.000000	66.271	37.7922
975.000000	66.373	38.5742
988.000000	66.483	39.3115
1000.000000	66.575	40.0466
1015.000000	66.716	40.8215
1030.000000	66.859	41.5670
1044.000000	66.989	42.2450
1060.000000	67.150	42.9758
1075.000000	67.283	43.6354
1090.000000	67.426	44.2737
1106.000000	67.574	44.9238
1120.000000	67.701	45.4380
1138.000000	67.864	46.1252
1150.000000	67.973	46.5096
1172.000000	68.166	47.2561
1180.000000	68.241	47.4923
1206.000000	68.457	48.3587
1220.000000	68.574	48.7756
1241.000000	68.748	49.3931
1250.000000	68.826	49.6703
1265.000000	68.922	50.1306
1280.000000	69.018	50.5382
1315.000000	69.246	51.5751
1320.000000	69.280	51.7169
1340.000000	69.412	52.2762
1360.000000	69.554	52.7874
1380.000000	69.686	53.3184
1400.000000	69.826	53.7899
1430.000000	70.034	54.5158
1450.000000	70.175	54.9428
1475.000000	70.355	55.4969
1500.000000	70.539	55.9673
1525.000000	70.720	56.3951
1550.000000	70.911	56.7703
1575.000000	71.101	57.1061
1600.000000	71.297	57.3827
1625.000000	71.524	57.5992
1650.000000	71.753	57.7455
1675.000000	71.987	57.8083
1700.000000	72.218	57.7715
1725.000000	72.445	57.6547
1750.000000	72.669	57.4713
1775.000000	72.888	57.1836
1800.000000	73.100	56.7970
1825.000000	73.310	56.2776
1850.000000	73.510	55.6928
1875.000000	73.708	54.9671
1900.000000	73.896	54.1315
1925.000000	74.077	53.1842
1950.000000	74.251	52.1580
1975.000000	74.423	51.0001
2000.000000	74.588	49.7651
2030.000000	74.765	48.0451
2060.000000	74.928	46.2611
2090.000000	75.071	44.3614
2120.000000	75.195	42.3951
2140.000000	75.260	41.0511
2180.000000	75.365	38.3082
2200.000000	75.403	36.9564
2240.000000	75.446	34.2309
2270.000000	75.454	32.2581
2300.000000	75.445	30.3458
2330.000000	75.419	28.5378
2360.000000	75.376	26.8564
2400.000000	75.301	24.7752
2430.000000	75.232	23.3645
2470.000000	75.131	21.6933
2500.000000	75.046	20.5981
2540.000000	74.934	19.3341
2580.000000	74.823	18.3071
2620.000000	74.710	17.4815
2650.000000	74.629	16.9852
2690.000000	74.517	16.4509
2720.000000	74.434	16.1046
2760.000000	74.327	15.8568
2800.000000	74.227	15.7008
2850.000000	74.107	15.7319
2900.000000	73.995	15.9727
2950.000000	73.901	16.4449
3000.000000	73.831	17.3338
3040.000000	73.785	18.2867
3070.000000	73.784	19.1956
3110.000000	73.823	20.6248
3150.000000	73.927	22.2656
3200.000000	74.186	24.2829
3250.000000	74.582	25.7990
3300.000000	75.064	26.3772
3350.000000	75.570	25.6570
3400.000000	76.030	23.6915
3450.000000	76.409	20.7495
3500.000000	76.691	17.0457
3550.000000	76.884	12.7820
3600.000000	76.990	8.0066
3650.000000	77.018	2.7341
3700.000000	76.977	-2.8157
3750.000000	76.874	-8.3541
3820.000000	76.629	-15.4539
3870.000000	76.386	-19.8410
3950.000000	75.880	-25.4814
4000.000000	75.487	-28.2409
4060.000000	74.958	-30.7772
4120.000000	74.387	-32.6739
4180.000000	73.795	-33.9753
4250.000000	73.119	-34.7598
4310.000000	72.556	-34.8623
4370.000000	72.027	-34.5830
4440.000000	71.484	-33.9492
4500.000000	71.082	-33.4146
4550.000000	70.785	-33.0265
4620.000000	70.424	-32.6877
4680.000000	70.150	-32.5983
4750.000000	69.870	-33.0108
4820.000000	69.579	-34.1467
4870.000000	69.313	-35.4769
4940.000000	68.762	-37.5798
5000.000000	68.096	-39.1008
5080.000000	66.972	-39.5064
5150.000000	65.933	-37.9244
5220.000000	64.986	-34.9155
5300.000000	64.075	-30.4252
5380.000000	63.330	-25.5914
5450.000000	62.831	-21.3189
5520.000000	62.401	-17.2305
5600.000000	62.001	-12.5714
5700.000000	61.579	-6.7581
5800.000000	61.227	-1.0791
5900.000000	60.926	4.6519
6000.000000	60.735	11.1044
6080.000000	60.969	16.6995
6150.000000	61.147	18.8822
6220.000000	61.114	21.5249
6300.000000	61.117	25.0444
6400.000000	61.288	29.6703
6500.000000	61.553	34.4440
6600.000000	61.885	38.9323
6700.000000	62.302	43.5405
6800.000000	62.842	47.7274
6900.000000	63.449	51.6922
7000.000000	64.144	55.4142
7100.000000	64.953	58.9646
7200.000000	65.902	61.8924
7300.000000	67.009	64.0903
7400.000000	68.235	65.4234
7500.000000	69.617	65.3304
7620.000000	71.453	62.5946
7750.000000	73.462	54.8319
7880.000000	74.989	40.3999
8000.000000	75.446	23.0955
8120.000000	74.923	7.1732
8250.000000	73.927	-4.5405
8380.000000	72.969	-11.6771
8500.000000	72.293	-16.4018
8620.000000	71.850	-20.7827
8750.000000	71.574	-26.4320
8850.000000	71.423	-32.2704
9000.000000	71.037	-43.8515
9120.000000	70.301	-54.9158
9250.000000	68.951	-66.4244
9380.000000	67.161	-75.5853
9500.000000	65.333	-81.3352
9620.000000	63.538	-84.8313
9750.000000	61.679	-86.8961
9880.000000	59.960	-87.8063
10000.000000	58.551	-87.9072
10150.000000	56.967	-87.6061
10300.000000	55.501	-87.6512
10440.000000	54.287	-87.4985
10600.000000	52.819	-88.6418
10750.000000	51.475	-90.9833
10900.000000	49.980	-94.2492
11060.000000	48.092	-99.8320
11200.000000	46.117	-106.2049
11380.000000	42.636	-119.2238
11500.000000	39.780	-136.1537
11720.000000	36.083	160.4880
11800.000000	37.034	133.7761
12060.000000	41.963	92.3582
12200.000000	43.629	82.6530
12410.000000	45.210	75.2136
12500.000000	45.838	74.1154
12650.000000	46.718	72.6091
12800.000000	47.860	73.9755
13150.000000	50.960	75.2745
13200.000000	51.520	75.3712
13400.000000	54.097	68.8648
13600.000000	56.575	51.7554
13800.000000	56.775	26.1835
14000.000000	54.967	8.8766
14300.000000	51.838	2.5350
14500.000000	50.374	3.9712
14750.000000	49.233	10.0112
15000.000000	48.587	17.3408
15250.000000	48.635	25.0576
15500.000000	49.447	34.2789
15750.000000	50.611	39.2009
16000.000000	52.673	39.1426
16250.000000	55.120	34.7648
16500.000000	57.102	21.3722
16750.000000	57.444	3.0037
17000.000000	56.245	-8.7547
17250.000000	54.981	-11.0021
17500.000000	54.124	-9.9819
17750.000000	53.869	-6.9189
18000.000000	53.979	-4.7468
18250.000000	54.569	-4.1638
18500.000000	55.000	-7.0702
18750.000000	55.157	-12.4395
19000.000000	54.819	-18.1617
19250.000000	53.909	-23.2474
19500.000000	53.142	-24.9523
19750.000000	52.755	-27.5093
