* Measurement data measured by REW V5.20.13
* Source: C:\Users\marcu\OneDrive\Desktop\audio_db\Kiwi Ears Dolce Foam L.txt
* Format: Comma/Tab/Space delimited data
* Dated: Jul 16, 2023 6:14:02 PM
* REW Settings:
*  C-weighting compensation: Off
*  Target level: 75.0 dB
* Note: ; Measurement imported from C:\Users\marcu\OneDrive\Desktop\audio_db\Kiwi Ears Dolce Foam L.txt Format: Comma/Tab/Space delimited data 54613 values loaded, 0 Hz to 20,000 Hz 
* Measurement: Kiwi Ears Dolce Foam L
* Smoothing: None
* Frequency Step: 1/48 octave
* Start Frequency: 1.000 Hz
*
* Freq(Hz)	SPL(dB)	Phase(degrees)
1.000000	63.751	126.2711
1.015000	63.594	125.3863
1.030000	63.432	124.4892
1.044000	63.276	123.6398
1.060000	63.093	122.6539
1.075000	62.916	121.7139
1.090000	62.734	120.7576
1.106000	62.533	119.7269
1.120000	62.354	118.8605
1.138000	62.118	117.7989
1.150000	61.958	117.1178
1.172000	61.657	115.9100
1.180000	61.546	115.4800
1.206000	61.176	114.0981
1.220000	60.972	113.3535
1.241000	60.659	112.2191
1.250000	60.522	111.7221
1.265000	60.290	110.8729
1.280000	60.055	109.9911
1.315000	59.488	107.7642
1.320000	59.405	107.4225
1.340000	59.068	105.9855
1.360000	58.723	104.4226
1.380000	58.371	102.7156
1.400000	58.009	100.8462
1.430000	57.452	97.6982
1.450000	57.070	95.3436
1.475000	56.575	92.0814
1.500000	56.014	88.4627
1.525000	55.389	84.5203
1.550000	54.715	80.2897
1.575000	54.007	75.8062
1.600000	53.279	71.1051
1.625000	52.546	66.2217
1.650000	51.824	61.1914
1.675000	51.125	56.0494
1.700000	50.467	50.8312
1.725000	49.863	45.5721
1.750000	49.327	40.3073
1.775000	48.875	35.0723
1.800000	48.522	29.9023
1.825000	48.282	24.8327
1.850000	48.167	19.7608
1.875000	48.165	14.4083
1.900000	48.265	8.8255
1.925000	48.453	3.0771
1.950000	48.716	-2.7724
1.975000	49.040	-8.6581
2.000000	49.411	-14.5156
2.030000	49.901	-21.4160
2.060000	50.418	-28.0708
2.090000	50.938	-34.3682
2.120000	51.439	-40.1966
2.140000	51.751	-43.7663
2.180000	52.290	-49.9989
2.200000	52.504	-52.5963
2.240000	52.893	-56.8383
2.270000	53.176	-59.3070
2.300000	53.451	-61.2441
2.330000	53.718	-62.7210
2.360000	53.977	-63.8095
2.400000	54.309	-64.7799
2.430000	54.548	-65.2399
2.470000	54.852	-65.6318
2.500000	55.069	-65.8526
2.540000	55.344	-66.1853
2.580000	55.599	-66.6572
2.620000	55.821	-66.8788
2.650000	55.968	-66.8389
2.690000	56.144	-66.5554
2.720000	56.266	-66.2003
2.760000	56.420	-65.5813
2.800000	56.573	-64.8467
2.850000	56.775	-63.8504
2.900000	57.004	-62.8681
2.950000	57.271	-61.9704
3.000000	57.563	-60.9161
3.040000	57.808	-59.9554
3.070000	57.997	-59.1924
3.110000	58.256	-58.1504
3.150000	58.522	-57.1165
3.200000	58.859	-55.8961
3.250000	59.201	-54.8280
3.300000	59.543	-53.9891
3.350000	59.896	-53.3387
3.400000	60.263	-52.8080
3.450000	60.638	-52.3911
3.500000	61.014	-52.0821
3.550000	61.385	-51.8752
3.600000	61.744	-51.7644
3.650000	62.085	-51.7438
3.700000	62.407	-51.8286
3.750000	62.719	-52.0527
3.820000	63.140	-52.5543
3.870000	63.427	-53.0109
3.950000	63.859	-53.8389
4.000000	64.111	-54.3763
4.060000	64.393	-55.0190
4.120000	64.652	-55.7378
4.180000	64.890	-56.5192
4.250000	65.146	-57.4703
4.310000	65.348	-58.2848
4.370000	65.537	-59.0670
4.440000	65.741	-59.9248
4.500000	65.895	-60.6573
4.550000	66.011	-61.2606
4.620000	66.160	-62.0797
4.680000	66.279	-62.7448
4.750000	66.411	-63.4602
4.820000	66.535	-64.1021
4.870000	66.615	-64.5239
4.940000	66.718	-65.0687
5.000000	66.802	-65.4980
5.080000	66.913	-66.0243
5.150000	67.014	-66.4464
5.220000	67.113	-66.8079
5.300000	67.226	-67.1609
5.380000	67.339	-67.4831
5.450000	67.441	-67.7668
5.520000	67.549	-68.0710
5.600000	67.678	-68.4057
5.700000	67.845	-68.8199
5.800000	68.016	-69.2764
5.900000	68.187	-69.8202
6.000000	68.363	-70.4342
6.080000	68.504	-70.9696
6.150000	68.626	-71.4704
6.220000	68.744	-72.0014
6.300000	68.874	-72.6538
6.400000	69.032	-73.5361
6.500000	69.183	-74.4637
6.600000	69.325	-75.4060
6.700000	69.457	-76.3750
6.800000	69.580	-77.3720
6.900000	69.695	-78.3666
7.000000	69.805	-79.3332
7.100000	69.907	-80.2874
7.200000	70.003	-81.2263
7.300000	70.098	-82.1390
7.400000	70.192	-83.0169
7.500000	70.283	-83.8643
7.620000	70.393	-84.8531
7.750000	70.516	-85.9016
7.880000	70.642	-86.9156
8.000000	70.761	-87.8412
8.120000	70.883	-88.7763
8.250000	71.019	-89.7903
8.380000	71.155	-90.8119
8.500000	71.280	-91.7705
8.620000	71.405	-92.7431
8.750000	71.536	-93.7991
8.850000	71.634	-94.6078
9.000000	71.776	-95.8249
9.120000	71.885	-96.7818
9.250000	71.998	-97.7880
9.380000	72.105	-98.7705
9.500000	72.201	-99.6441
9.620000	72.296	-100.4783
9.750000	72.396	-101.3430
9.880000	72.486	-102.1681
10.000000	72.557	-102.8920
10.150000	72.633	-103.7497
10.300000	72.705	-104.5709
10.440000	72.767	-105.3011
10.600000	72.836	-106.1063
10.750000	72.903	-106.8429
10.900000	72.969	-107.5599
11.060000	73.039	-108.3155
11.200000	73.098	-108.9675
11.380000	73.171	-109.7972
11.500000	73.217	-110.3461
11.720000	73.296	-111.3422
11.800000	73.323	-111.7015
12.060000	73.402	-112.8565
12.200000	73.438	-113.4685
12.410000	73.488	-114.3722
12.500000	73.513	-114.7518
12.650000	73.559	-115.3755
12.800000	73.605	-115.9846
13.150000	73.700	-117.3399
13.200000	73.712	-117.5262
13.400000	73.759	-118.2508
13.600000	73.804	-118.9532
13.800000	73.847	-119.6349
14.000000	73.890	-120.3129
14.300000	73.955	-121.3330
14.500000	73.996	-122.0296
14.750000	74.044	-122.9193
15.000000	74.087	-123.8277
15.250000	74.123	-124.7392
15.500000	74.154	-125.6348
15.750000	74.182	-126.5039
16.000000	74.212	-127.3345
16.250000	74.248	-128.1327
16.500000	74.292	-128.9058
16.750000	74.339	-129.6674
17.000000	74.390	-130.4335
17.250000	74.442	-131.2084
17.500000	74.494	-131.9961
17.750000	74.543	-132.7867
18.000000	74.589	-133.5689
18.250000	74.630	-134.3301
18.500000	74.666	-135.0523
18.750000	74.700	-135.7309
19.000000	74.733	-136.3619
19.250000	74.768	-136.9535
19.500000	74.804	-137.5207
19.750000	74.842	-138.0754
20.000000	74.881	-138.6372
20.299999	74.925	-139.3247
20.600000	74.962	-140.0188
20.900000	74.989	-140.6956
21.200001	75.003	-141.3191
21.400000	75.011	-141.6891
21.799999	75.026	-142.3243
22.000000	75.038	-142.6038
22.400000	75.075	-143.1460
22.700001	75.112	-143.5951
23.000000	75.153	-144.1178
23.299999	75.190	-144.7099
23.600000	75.219	-145.3475
24.000000	75.245	-146.2203
24.299999	75.257	-146.8635
24.700001	75.266	-147.6965
25.000000	75.269	-148.3034
25.400000	75.264	-149.0727
25.799999	75.251	-149.7365
26.200001	75.237	-150.2239
26.500000	75.239	-150.4707
26.900000	75.271	-150.7163
27.200001	75.320	-150.9384
27.600000	75.407	-151.4171
28.000000	75.491	-152.1667
28.500000	75.547	-153.3476
29.000000	75.535	-154.4402
29.500000	75.491	-155.1620
30.000000	75.465	-155.5391
30.400000	75.475	-155.7857
30.700001	75.496	-156.0350
31.100000	75.525	-156.4923
31.500000	75.538	-157.0376
32.000000	75.530	-157.6863
32.500000	75.516	-158.1962
33.000000	75.518	-158.6389
33.500000	75.532	-159.1474
34.000000	75.539	-159.7399
34.500000	75.534	-160.3047
35.000000	75.530	-160.7689
35.500000	75.542	-161.2030
36.000000	75.565	-161.7336
36.500000	75.577	-162.3726
37.000000	75.566	-162.9866
37.500000	75.544	-163.4473
38.200001	75.539	-163.8891
38.700001	75.559	-164.2496
39.500000	75.585	-165.0722
40.000000	75.577	-165.5922
40.599998	75.560	-166.0557
41.200001	75.563	-166.4024
41.799999	75.586	-166.8449
42.500000	75.600	-167.5731
43.099998	75.575	-168.1584
43.700001	75.544	-168.5204
44.400002	75.542	-168.7986
45.000000	75.563	-169.1619
45.500000	75.573	-169.5876
46.200001	75.561	-170.2081
46.799999	75.539	-170.6259
47.500000	75.524	-170.9915
48.200001	75.528	-171.3781
48.700001	75.533	-171.7223
49.400002	75.527	-172.2381
50.000000	75.514	-172.6208
50.799999	75.505	-173.0659
51.500000	75.498	-173.4683
52.200001	75.486	-173.8281
53.000000	75.485	-174.1762
53.799999	75.494	-174.6195
54.500000	75.491	-175.0857
55.200001	75.475	-175.5201
56.000000	75.456	-175.9530
57.000000	75.437	-176.4244
58.000000	75.431	-176.8921
59.000000	75.421	-177.4285
60.000000	75.404	-177.8775
60.799999	75.399	-178.2248
61.500000	75.393	-178.5707
62.200001	75.381	-178.9142
63.000000	75.365	-179.2914
64.000000	75.339	-179.7566
65.000000	75.311	179.8446
66.000000	75.295	179.4552
67.000000	75.279	179.0148
68.000000	75.257	178.5935
69.000000	75.235	178.2294
70.000000	75.219	177.8742
71.000000	75.202	177.4697
72.000000	75.174	177.0858
73.000000	75.153	176.7540
74.000000	75.134	176.3468
75.000000	75.109	175.9633
76.199997	75.082	175.5005
77.500000	75.044	175.0517
78.800003	75.013	174.6101
80.000000	74.981	174.2797
81.199997	74.960	173.9153
82.500000	74.933	173.5324
83.800003	74.913	173.1079
85.000000	74.884	172.7084
86.199997	74.850	172.3726
87.500000	74.818	172.0506
88.500000	74.795	171.8179
90.000000	74.769	171.4109
91.199997	74.738	171.0493
92.500000	74.698	170.7113
93.800003	74.668	170.4273
95.000000	74.641	170.1234
96.199997	74.610	169.8299
97.500000	74.574	169.5163
98.800003	74.540	169.2252
100.000000	74.508	168.9266
101.500000	74.468	168.5622
103.000000	74.432	168.2173
104.400002	74.401	167.9155
106.000000	74.366	167.5722
107.500000	74.330	167.2900
109.000000	74.292	167.0093
110.599998	74.247	166.7303
112.000000	74.209	166.4801
113.800003	74.163	166.1684
115.000000	74.137	165.9211
117.199997	74.081	165.5042
118.000000	74.063	165.3604
120.599998	74.002	164.8923
122.000000	73.969	164.6550
124.099998	73.915	164.3367
125.000000	73.894	164.1995
126.500000	73.857	163.9809
128.000000	73.822	163.7784
131.500000	73.747	163.2967
132.000000	73.737	163.2230
134.000000	73.696	162.9503
136.000000	73.656	162.6774
138.000000	73.610	162.4510
140.000000	73.568	162.2356
143.000000	73.498	161.8902
145.000000	73.453	161.6461
147.500000	73.400	161.3394
150.000000	73.346	161.1330
152.500000	73.294	160.8994
155.000000	73.237	160.6760
157.500000	73.184	160.4091
160.000000	73.125	160.1925
162.500000	73.062	160.0052
165.000000	72.994	159.8423
167.500000	72.930	159.6395
170.000000	72.865	159.4536
172.500000	72.796	159.2989
175.000000	72.730	159.1659
177.500000	72.664	158.9889
180.000000	72.602	158.8341
182.500000	72.541	158.6782
185.000000	72.475	158.5614
187.500000	72.411	158.4684
190.000000	72.349	158.3710
192.500000	72.288	158.2746
195.000000	72.228	158.1648
197.500000	72.165	158.0792
200.000000	72.103	157.9977
203.000000	72.034	157.8979
206.000000	71.968	157.8037
209.000000	71.906	157.7377
212.000000	71.841	157.6759
214.000000	71.797	157.6212
218.000000	71.712	157.5381
220.000000	71.670	157.5253
224.000000	71.589	157.4987
227.000000	71.523	157.4670
230.000000	71.460	157.4505
233.000000	71.400	157.4045
236.000000	71.343	157.4199
240.000000	71.265	157.5559
243.000000	71.205	157.4838
247.000000	71.124	157.4101
250.000000	71.069	157.4050
254.000000	70.996	157.4365
258.000000	70.925	157.5005
262.000000	70.853	157.5527
265.000000	70.796	157.5669
269.000000	70.723	157.6182
272.000000	70.673	157.6967
276.000000	70.605	157.7991
280.000000	70.536	157.8757
285.000000	70.453	157.9782
290.000000	70.371	158.1153
295.000000	70.288	158.2576
300.000000	70.210	158.3791
304.000000	70.147	158.4915
307.000000	70.103	158.5864
311.000000	70.045	158.7365
315.000000	69.983	158.8798
320.000000	69.905	159.0657
325.000000	69.831	159.2563
330.000000	69.761	159.4387
335.000000	69.687	159.6545
340.000000	69.612	159.8651
345.000000	69.543	160.0527
350.000000	69.479	160.2576
355.000000	69.414	160.4930
360.000000	69.350	160.7682
365.000000	69.279	160.9525
370.000000	69.210	161.1779
375.000000	69.143	161.4210
382.000000	69.062	161.7755
387.000000	69.004	162.0360
395.000000	68.906	162.4219
400.000000	68.845	162.6867
406.000000	68.776	163.0205
412.000000	68.711	163.3390
418.000000	68.639	163.6633
425.000000	68.563	164.0479
431.000000	68.497	164.4146
437.000000	68.432	164.7722
444.000000	68.357	165.1761
450.000000	68.295	165.5469
455.000000	68.240	165.8537
462.000000	68.169	166.2989
468.000000	68.112	166.6657
475.000000	68.046	167.1087
482.000000	67.976	167.5556
487.000000	67.926	167.8813
494.000000	67.858	168.3619
500.000000	67.800	168.7912
508.000000	67.726	169.3479
515.000000	67.662	169.8602
522.000000	67.596	170.4067
530.000000	67.527	171.0845
538.000000	67.463	171.7781
545.000000	67.407	172.4023
552.000000	67.357	173.0222
560.000000	67.307	173.7537
570.000000	67.252	174.6620
580.000000	67.208	175.5954
590.000000	67.167	176.4847
600.000000	67.134	177.3421
608.000000	67.112	178.0049
615.000000	67.093	178.5868
622.000000	67.075	179.1931
630.000000	67.056	179.8602
640.000000	67.026	-179.3606
650.000000	67.003	-178.5487
660.000000	66.983	-177.7388
670.000000	66.960	-176.9587
680.000000	66.934	-176.1742
690.000000	66.914	-175.3830
700.000000	66.897	-174.5381
710.000000	66.881	-173.6579
720.000000	66.864	-172.7941
730.000000	66.855	-171.9501
740.000000	66.849	-171.0982
750.000000	66.844	-170.2153
762.000000	66.848	-169.1292
775.000000	66.856	-167.9414
788.000000	66.868	-166.7614
800.000000	66.890	-165.6883
812.000000	66.912	-164.6205
825.000000	66.939	-163.4494
838.000000	66.976	-162.3121
850.000000	67.016	-161.2483
862.000000	67.065	-160.2048
875.000000	67.121	-159.1238
885.000000	67.168	-158.3131
900.000000	67.250	-157.1439
912.000000	67.319	-156.2489
925.000000	67.401	-155.3091
938.000000	67.490	-154.3948
950.000000	67.570	-153.5925
962.000000	67.655	-152.8314
975.000000	67.750	-152.0662
988.000000	67.846	-151.3212
1000.000000	67.942	-150.6755
1015.000000	68.066	-149.9089
1030.000000	68.197	-149.2106
1044.000000	68.320	-148.5953
1060.000000	68.460	-147.9553
1075.000000	68.590	-147.3997
1090.000000	68.716	-146.8987
1106.000000	68.852	-146.4007
1120.000000	68.967	-146.0101
1138.000000	69.110	-145.5352
1150.000000	69.205	-145.2543
1172.000000	69.371	-144.7751
1180.000000	69.430	-144.6073
1206.000000	69.614	-144.1152
1220.000000	69.704	-143.8818
1241.000000	69.838	-143.5587
1250.000000	69.890	-143.4129
1265.000000	69.960	-143.1723
1280.000000	70.020	-142.9601
1315.000000	70.153	-142.4599
1320.000000	70.170	-142.3876
1340.000000	70.237	-142.0911
1360.000000	70.307	-141.8075
1380.000000	70.369	-141.5291
1400.000000	70.433	-141.2339
1430.000000	70.527	-140.7782
1450.000000	70.586	-140.4771
1475.000000	70.662	-140.0871
1500.000000	70.735	-139.6725
1525.000000	70.809	-139.2739
1550.000000	70.885	-138.8551
1575.000000	70.962	-138.4433
1600.000000	71.047	-138.0383
1625.000000	71.158	-137.6241
1650.000000	71.275	-137.2039
1675.000000	71.395	-136.8012
1700.000000	71.516	-136.4093
1725.000000	71.642	-136.0198
1750.000000	71.765	-135.6275
1775.000000	71.890	-135.2410
1800.000000	72.019	-134.8656
1825.000000	72.149	-134.5188
1850.000000	72.281	-134.1765
1875.000000	72.416	-133.8373
1900.000000	72.551	-133.5320
1925.000000	72.686	-133.2502
1950.000000	72.827	-132.9620
1975.000000	72.967	-132.7064
2000.000000	73.106	-132.4760
2030.000000	73.270	-132.2114
2060.000000	73.434	-131.9848
2090.000000	73.600	-131.7954
2120.000000	73.768	-131.6349
2140.000000	73.880	-131.5450
2180.000000	74.106	-131.4147
2200.000000	74.219	-131.3728
2240.000000	74.450	-131.3492
2270.000000	74.622	-131.3755
2300.000000	74.793	-131.4269
2330.000000	74.964	-131.5269
2360.000000	75.134	-131.6684
2400.000000	75.358	-131.9052
2430.000000	75.527	-132.1288
2470.000000	75.749	-132.5040
2500.000000	75.913	-132.8223
2540.000000	76.129	-133.2932
2580.000000	76.339	-133.8536
2620.000000	76.545	-134.4723
2650.000000	76.695	-134.9753
2690.000000	76.888	-135.6898
2720.000000	77.030	-136.2655
2760.000000	77.215	-137.0905
2800.000000	77.395	-137.9730
2850.000000	77.606	-139.1446
2900.000000	77.803	-140.3715
2950.000000	77.991	-141.6771
3000.000000	78.167	-143.0420
3040.000000	78.299	-144.1775
3070.000000	78.391	-145.0450
3110.000000	78.506	-146.2163
3150.000000	78.615	-147.4160
3200.000000	78.739	-148.9545
3250.000000	78.852	-150.5262
3300.000000	78.949	-152.1191
3350.000000	79.033	-153.7260
3400.000000	79.105	-155.3588
3450.000000	79.170	-157.0210
3500.000000	79.221	-158.6940
3550.000000	79.256	-160.3662
3600.000000	79.278	-162.0414
3650.000000	79.289	-163.7356
3700.000000	79.287	-165.4196
3750.000000	79.267	-167.0668
3820.000000	79.211	-169.2686
3870.000000	79.162	-170.7446
3950.000000	79.094	-173.0366
4000.000000	79.049	-174.4997
4060.000000	78.972	-176.3050
4120.000000	78.867	-178.1198
4180.000000	78.739	-179.8994
4250.000000	78.567	178.1129
4310.000000	78.399	176.5331
4370.000000	78.209	175.0718
4440.000000	77.967	173.5363
4500.000000	77.746	172.3549
4550.000000	77.559	171.4686
4620.000000	77.284	170.4026
4680.000000	77.038	169.6792
4750.000000	76.748	168.9997
4820.000000	76.456	168.5219
4870.000000	76.250	168.2959
4940.000000	75.964	168.1354
5000.000000	75.715	168.1519
5080.000000	75.376	168.3589
5150.000000	75.087	168.7037
5220.000000	74.811	169.1908
5300.000000	74.513	169.8976
5380.000000	74.231	170.7427
5450.000000	74.002	171.5857
5520.000000	73.789	172.5008
5600.000000	73.568	173.6126
5700.000000	73.321	175.0596
5800.000000	73.102	176.5406
5900.000000	72.906	178.0052
6000.000000	72.732	179.3870
6080.000000	72.600	-179.5990
6150.000000	72.475	-178.7434
6220.000000	72.342	-177.8922
6300.000000	72.188	-176.8967
6400.000000	72.022	-175.4562
6500.000000	71.856	-173.5953
6600.000000	71.705	-171.2319
6700.000000	71.605	-168.4358
6800.000000	71.583	-165.3784
6900.000000	71.642	-162.2304
7000.000000	71.781	-159.1108
7100.000000	71.988	-156.1060
7200.000000	72.258	-153.3405
7300.000000	72.580	-150.8643
7400.000000	72.954	-148.6763
7500.000000	73.370	-146.7874
7620.000000	73.923	-144.9976
7750.000000	74.585	-143.7495
7880.000000	75.299	-143.4021
8000.000000	75.956	-144.0198
8120.000000	76.527	-145.6968
8250.000000	77.057	-148.8523
8380.000000	77.442	-153.2993
8500.000000	77.613	-158.2513
8620.000000	77.571	-163.4964
8750.000000	77.282	-168.8141
8850.000000	76.921	-172.2552
9000.000000	76.246	-176.0324
9120.000000	75.658	-177.8012
9250.000000	75.028	-178.5837
9380.000000	74.448	-178.3910
9500.000000	73.978	-177.5334
9620.000000	73.590	-176.1821
9750.000000	73.267	-174.3125
9880.000000	73.053	-172.1629
10000.000000	72.966	-170.0307
10150.000000	73.028	-167.3058
10300.000000	73.257	-164.7049
10440.000000	73.628	-162.5745
10600.000000	74.248	-160.8760
10750.000000	74.997	-160.3663
10900.000000	75.913	-161.4790
11060.000000	76.979	-165.4773
11200.000000	77.828	-172.0601
11380.000000	78.433	175.1902
11500.000000	78.332	165.2927
11720.000000	77.076	149.7346
11800.000000	76.386	145.8936
12060.000000	74.040	139.8465
12200.000000	72.855	139.2177
12410.000000	71.266	140.7256
12500.000000	70.664	142.0174
12650.000000	69.768	144.7630
12800.000000	69.039	147.8708
13150.000000	67.800	154.7058
13200.000000	67.658	155.6552
13400.000000	67.185	159.3848
13600.000000	66.863	162.7263
13800.000000	66.679	165.3993
14000.000000	66.605	167.1048
14300.000000	66.575	167.4062
14500.000000	66.504	165.8732
14750.000000	66.196	162.2439
15000.000000	65.528	157.9644
15250.000000	64.499	154.5684
15500.000000	63.256	153.1170
15750.000000	61.980	153.8337
16000.000000	60.859	156.3454
16250.000000	60.134	160.1293
16500.000000	59.683	164.7550
16750.000000	59.432	169.7684
17000.000000	59.384	174.8506
17250.000000	59.533	179.7247
17500.000000	59.851	-175.9794
17750.000000	60.313	-172.6768
18000.000000	60.880	-170.6398
18250.000000	61.488	-170.4779
18500.000000	62.026	-172.4775
18750.000000	62.319	-176.7832
19000.000000	62.194	177.3155
19250.000000	61.570	171.1399
19500.000000	60.498	166.0511
19750.000000	59.106	162.6243
