* Measurement data measured by REW V5.20.13
* Source: C:\Users\marcu\OneDrive\Desktop\audio_db\Kiwi Ears Quartet s.10 Foam R.txt
* Format: Comma/Tab/Space delimited data
* Dated: Jul 16, 2023 8:04:47 PM
* REW Settings:
*  C-weighting compensation: Off
*  Target level: 75.0 dB
* Note: ; Measurement imported from C:\Users\marcu\OneDrive\Desktop\audio_db\Kiwi Ears Quartet s.10 Foam R.txt Format: Comma/Tab/Space delimited data 54613 values loaded, 0 Hz to 20,000 Hz 
* Measurement: Kiwi Ears Quartet s.10 Foam R
* Smoothing: None
* Frequency Step: 1/48 octave
* Start Frequency: 1.000 Hz
*
* Freq(Hz)	SPL(dB)	Phase(degrees)
1.000000	62.594	48.1904
1.015000	62.649	46.4375
1.030000	62.704	44.6976
1.044000	62.756	43.0857
1.060000	62.814	41.2584
1.075000	62.868	39.5602
1.090000	62.922	37.8769
1.106000	62.979	36.0977
1.120000	63.030	34.5522
1.138000	63.096	32.5795
1.150000	63.140	31.2735
1.172000	63.222	28.8982
1.180000	63.252	28.0406
1.206000	63.350	25.2761
1.220000	63.404	23.8020
1.241000	63.484	21.6099
1.250000	63.518	20.6774
1.265000	63.575	19.1328
1.280000	63.633	17.6000
1.315000	63.765	14.0697
1.320000	63.784	13.5707
1.340000	63.858	11.5880
1.360000	63.931	9.6268
1.380000	64.004	7.6871
1.400000	64.075	5.7692
1.430000	64.178	2.9333
1.450000	64.245	1.0702
1.475000	64.325	-1.2276
1.500000	64.405	-3.4905
1.525000	64.483	-5.7190
1.550000	64.560	-7.9132
1.575000	64.636	-10.0734
1.600000	64.710	-12.1999
1.625000	64.783	-14.2929
1.650000	64.854	-16.3528
1.675000	64.923	-18.3799
1.700000	64.990	-20.3743
1.725000	65.055	-22.3365
1.750000	65.117	-24.2666
1.775000	65.176	-26.1649
1.800000	65.233	-28.0318
1.825000	65.287	-29.8675
1.850000	65.338	-31.6721
1.875000	65.387	-33.4452
1.900000	65.433	-35.1866
1.925000	65.476	-36.8962
1.950000	65.517	-38.5738
1.975000	65.556	-40.2192
2.000000	65.592	-41.8322
2.030000	65.633	-43.7249
2.060000	65.671	-45.5704
2.090000	65.706	-47.3685
2.120000	65.739	-49.1188
2.140000	65.759	-50.2590
2.180000	65.796	-52.4749
2.200000	65.813	-53.5505
2.240000	65.842	-55.6380
2.270000	65.858	-57.1483
2.300000	65.871	-58.6111
2.330000	65.880	-60.0264
2.360000	65.887	-61.3940
2.400000	65.893	-63.1433
2.430000	65.897	-64.3995
2.470000	65.901	-66.0000
2.500000	65.904	-67.1444
2.540000	65.909	-68.5956
2.580000	65.917	-69.9592
2.620000	65.921	-71.2200
2.650000	65.922	-72.1001
2.690000	65.920	-73.1932
2.720000	65.919	-73.9572
2.760000	65.919	-74.9085
2.800000	65.921	-75.7904
2.850000	65.932	-76.8082
2.900000	65.955	-77.7473
2.950000	65.992	-78.6145
3.000000	66.038	-79.3428
3.040000	66.080	-79.8322
3.070000	66.115	-80.1560
3.110000	66.167	-80.5441
3.150000	66.225	-80.8978
3.200000	66.306	-81.3181
3.250000	66.398	-81.7452
3.300000	66.502	-82.2125
3.350000	66.620	-82.6760
3.400000	66.753	-83.1027
3.450000	66.897	-83.5118
3.500000	67.050	-83.9226
3.550000	67.208	-84.3544
3.600000	67.367	-84.8266
3.650000	67.526	-85.3583
3.700000	67.685	-85.9567
3.750000	67.851	-86.5996
3.820000	68.090	-87.5650
3.870000	68.262	-88.2953
3.950000	68.531	-89.5228
4.000000	68.691	-90.3201
4.060000	68.872	-91.3082
4.120000	69.048	-92.3586
4.180000	69.218	-93.4570
4.250000	69.407	-94.7716
4.310000	69.559	-95.9031
4.370000	69.702	-97.0168
4.440000	69.854	-98.2882
4.500000	69.972	-99.3913
4.550000	70.064	-100.3111
4.620000	70.182	-101.5805
4.680000	70.275	-102.6338
4.750000	70.376	-103.7989
4.820000	70.467	-104.8936
4.870000	70.525	-105.6479
4.940000	70.597	-106.6601
5.000000	70.653	-107.4815
5.080000	70.725	-108.5013
5.150000	70.789	-109.3142
5.220000	70.848	-110.0457
5.300000	70.911	-110.7952
5.380000	70.973	-111.4716
5.450000	71.031	-112.0189
5.520000	71.095	-112.5343
5.600000	71.173	-113.0491
5.700000	71.275	-113.6094
5.800000	71.384	-114.1384
5.900000	71.501	-114.6911
6.000000	71.629	-115.2284
6.080000	71.737	-115.6564
6.150000	71.832	-116.0452
6.220000	71.926	-116.4601
6.300000	72.033	-116.9702
6.400000	72.169	-117.6448
6.500000	72.302	-118.3508
6.600000	72.426	-119.0785
6.700000	72.541	-119.8419
6.800000	72.649	-120.6341
6.900000	72.749	-121.4243
7.000000	72.840	-122.1878
7.100000	72.919	-122.9450
7.200000	72.991	-123.6851
7.300000	73.057	-124.3865
7.400000	73.117	-125.0363
7.500000	73.171	-125.6456
7.620000	73.231	-126.3265
7.750000	73.298	-127.0019
7.880000	73.363	-127.6025
8.000000	73.424	-128.1194
8.120000	73.489	-128.6248
8.250000	73.563	-129.1418
8.380000	73.638	-129.6552
8.500000	73.709	-130.1499
8.620000	73.781	-130.6542
8.750000	73.858	-131.2150
8.850000	73.914	-131.6611
9.000000	73.995	-132.3552
9.120000	74.056	-132.9167
9.250000	74.116	-133.5227
9.380000	74.171	-134.1319
9.500000	74.218	-134.6826
9.620000	74.263	-135.2143
9.750000	74.308	-135.7748
9.880000	74.344	-136.3165
10.000000	74.365	-136.7962
10.150000	74.378	-137.3729
10.300000	74.387	-137.9365
10.440000	74.390	-138.4484
10.600000	74.393	-139.0261
10.750000	74.397	-139.5693
10.900000	74.401	-140.1109
11.060000	74.405	-140.6891
11.200000	74.408	-141.1962
11.380000	74.410	-141.8416
11.500000	74.411	-142.2669
11.720000	74.411	-143.0332
11.800000	74.411	-143.3055
12.060000	74.409	-144.1710
12.200000	74.409	-144.6256
12.410000	74.410	-145.2938
12.500000	74.414	-145.5773
12.650000	74.434	-146.0455
12.800000	74.457	-146.5080
13.150000	74.508	-147.5650
13.200000	74.515	-147.7119
13.400000	74.542	-148.2895
13.600000	74.568	-148.8463
13.800000	74.593	-149.3798
14.000000	74.619	-149.8944
14.300000	74.657	-150.6353
14.500000	74.684	-151.1179
14.750000	74.716	-151.7144
15.000000	74.746	-152.3050
15.250000	74.773	-152.8855
15.500000	74.797	-153.4460
15.750000	74.818	-153.9818
16.000000	74.839	-154.4881
16.250000	74.865	-154.9719
16.500000	74.893	-155.4392
16.750000	74.922	-155.9001
17.000000	74.950	-156.3608
17.250000	74.975	-156.8209
17.500000	74.997	-157.2783
17.750000	75.017	-157.7254
18.000000	75.035	-158.1603
18.250000	75.051	-158.5809
18.500000	75.067	-158.9917
18.750000	75.083	-159.3968
19.000000	75.099	-159.8004
19.250000	75.114	-160.2050
19.500000	75.128	-160.6090
19.750000	75.142	-161.0110
20.000000	75.155	-161.4074
20.299999	75.171	-161.8747
20.600000	75.187	-162.3329
20.900000	75.203	-162.7839
21.200001	75.220	-163.2293
21.400000	75.231	-163.5226
21.799999	75.252	-164.0983
22.000000	75.262	-164.3800
22.400000	75.282	-164.9308
22.700001	75.298	-165.3350
23.000000	75.313	-165.7329
23.299999	75.327	-166.1231
23.600000	75.340	-166.5027
24.000000	75.355	-166.9886
24.299999	75.367	-167.3384
24.700001	75.383	-167.7913
25.000000	75.395	-168.1266
25.400000	75.411	-168.5715
25.799999	75.423	-169.0110
26.200001	75.434	-169.4385
26.500000	75.441	-169.7501
26.900000	75.450	-170.1568
27.200001	75.457	-170.4600
27.600000	75.466	-170.8667
28.000000	75.473	-171.2762
28.500000	75.478	-171.7827
29.000000	75.481	-172.2698
29.500000	75.485	-172.7350
30.000000	75.492	-173.1911
30.400000	75.497	-173.5604
30.700001	75.501	-173.8406
31.100000	75.505	-174.2123
31.500000	75.507	-174.5720
32.000000	75.509	-174.9969
32.500000	75.513	-175.4045
33.000000	75.518	-175.8144
33.500000	75.523	-176.2305
34.000000	75.524	-176.6397
34.500000	75.524	-177.0320
35.000000	75.522	-177.4107
35.500000	75.522	-177.7824
36.000000	75.520	-178.1488
36.500000	75.518	-178.5113
37.000000	75.517	-178.8756
37.500000	75.514	-179.2443
38.200001	75.508	-179.7543
38.700001	75.502	179.8969
39.500000	75.494	179.3623
40.000000	75.491	179.0334
40.599998	75.489	178.6373
41.200001	75.486	178.2382
41.799999	75.483	177.8434
42.500000	75.476	177.4000
43.099998	75.471	177.0337
43.700001	75.465	176.6711
44.400002	75.458	176.2509
45.000000	75.452	175.8979
45.500000	75.445	175.6096
46.200001	75.436	175.2115
46.799999	75.429	174.8712
47.500000	75.419	174.4748
48.200001	75.410	174.0841
48.700001	75.402	173.8100
49.400002	75.392	173.4307
50.000000	75.382	173.1101
50.799999	75.370	172.6931
51.500000	75.360	172.3354
52.200001	75.350	171.9799
53.000000	75.337	171.5767
53.799999	75.324	171.1806
54.500000	75.310	170.8423
55.200001	75.298	170.5105
56.000000	75.283	170.1339
57.000000	75.263	169.6643
58.000000	75.242	169.2037
59.000000	75.220	168.7558
60.000000	75.199	168.3237
60.799999	75.184	167.9777
61.500000	75.170	167.6674
62.200001	75.153	167.3621
63.000000	75.134	167.0305
64.000000	75.109	166.6278
65.000000	75.083	166.2281
66.000000	75.059	165.8310
67.000000	75.031	165.4341
68.000000	75.003	165.0488
69.000000	74.976	164.6769
70.000000	74.949	164.3060
71.000000	74.920	163.9383
72.000000	74.892	163.5810
73.000000	74.864	163.2314
74.000000	74.835	162.8821
75.000000	74.805	162.5369
76.199997	74.770	162.1320
77.500000	74.731	161.7030
78.800003	74.693	161.2825
80.000000	74.657	160.9024
81.199997	74.622	160.5233
82.500000	74.583	160.1278
83.800003	74.545	159.7338
85.000000	74.507	159.3699
86.199997	74.468	159.0331
87.500000	74.429	158.6716
88.500000	74.399	158.3967
90.000000	74.353	157.9870
91.199997	74.315	157.6672
92.500000	74.273	157.3233
93.800003	74.230	156.9934
95.000000	74.192	156.6992
96.199997	74.154	156.4038
97.500000	74.112	156.0851
98.800003	74.070	155.7738
100.000000	74.030	155.4981
101.500000	73.981	155.1549
103.000000	73.932	154.8254
104.400002	73.889	154.5200
106.000000	73.836	154.1701
107.500000	73.786	153.8651
109.000000	73.737	153.5760
110.599998	73.685	153.2667
112.000000	73.639	152.9969
113.800003	73.580	152.6569
115.000000	73.540	152.4350
117.199997	73.468	152.0468
118.000000	73.441	151.9050
120.599998	73.356	151.4710
122.000000	73.310	151.2448
124.099998	73.240	150.9131
125.000000	73.212	150.7803
126.500000	73.168	150.5590
128.000000	73.125	150.3381
131.500000	73.025	149.8403
132.000000	73.011	149.7721
134.000000	72.952	149.5179
136.000000	72.895	149.2683
138.000000	72.837	149.0236
140.000000	72.779	148.7853
143.000000	72.693	148.4530
145.000000	72.637	148.2437
147.500000	72.565	147.9824
150.000000	72.493	147.7365
152.500000	72.423	147.5115
155.000000	72.352	147.2966
157.500000	72.282	147.0881
160.000000	72.209	146.8890
162.500000	72.128	146.7131
165.000000	72.048	146.5476
167.500000	71.967	146.3798
170.000000	71.885	146.2352
172.500000	71.806	146.0980
175.000000	71.726	145.9594
177.500000	71.647	145.8338
180.000000	71.569	145.7222
182.500000	71.490	145.6224
185.000000	71.412	145.5277
187.500000	71.337	145.4398
190.000000	71.262	145.3604
192.500000	71.186	145.2964
195.000000	71.111	145.2360
197.500000	71.039	145.1768
200.000000	70.969	145.1245
203.000000	70.888	145.0674
206.000000	70.809	145.0291
209.000000	70.734	144.9992
212.000000	70.657	144.9752
214.000000	70.606	144.9676
218.000000	70.507	144.9512
220.000000	70.459	144.9468
224.000000	70.362	144.9862
227.000000	70.290	145.0063
230.000000	70.219	145.0297
233.000000	70.151	145.0618
236.000000	70.083	145.1037
240.000000	69.994	145.1603
243.000000	69.929	145.2166
247.000000	69.841	145.3107
250.000000	69.777	145.3757
254.000000	69.695	145.4744
258.000000	69.617	145.5836
262.000000	69.540	145.7111
265.000000	69.483	145.8026
269.000000	69.407	145.9310
272.000000	69.352	146.0361
276.000000	69.280	146.1795
280.000000	69.210	146.3334
285.000000	69.126	146.5427
290.000000	69.041	146.7420
295.000000	68.961	146.9733
300.000000	68.882	147.2015
304.000000	68.822	147.3872
307.000000	68.778	147.5264
311.000000	68.720	147.7131
315.000000	68.662	147.9040
320.000000	68.594	148.1475
325.000000	68.528	148.4073
330.000000	68.462	148.6703
335.000000	68.400	148.9337
340.000000	68.338	149.2131
345.000000	68.280	149.4736
350.000000	68.224	149.7303
355.000000	68.169	150.0143
360.000000	68.116	150.2819
365.000000	68.066	150.5467
370.000000	68.018	150.8216
375.000000	67.969	151.1014
382.000000	67.905	151.4919
387.000000	67.863	151.7625
395.000000	67.796	152.1782
400.000000	67.756	152.4430
406.000000	67.712	152.7688
412.000000	67.667	153.0956
418.000000	67.626	153.4059
425.000000	67.583	153.7701
431.000000	67.548	154.0785
437.000000	67.509	154.3890
444.000000	67.466	154.7266
450.000000	67.434	155.0157
455.000000	67.409	155.2610
462.000000	67.371	155.6070
468.000000	67.340	155.8860
475.000000	67.310	156.2068
482.000000	67.278	156.5408
487.000000	67.256	156.7767
494.000000	67.224	157.0972
500.000000	67.200	157.3666
508.000000	67.171	157.7252
515.000000	67.144	158.0471
522.000000	67.118	158.3580
530.000000	67.090	158.7093
538.000000	67.063	159.0535
545.000000	67.040	159.3631
552.000000	67.020	159.6683
560.000000	66.995	160.0263
570.000000	66.966	160.4453
580.000000	66.939	160.8671
590.000000	66.912	161.3077
600.000000	66.886	161.7783
608.000000	66.869	162.1251
615.000000	66.854	162.4387
622.000000	66.837	162.7584
630.000000	66.824	163.1228
640.000000	66.809	163.5782
650.000000	66.795	164.0453
660.000000	66.783	164.5198
670.000000	66.772	165.0038
680.000000	66.766	165.4717
690.000000	66.764	165.9447
700.000000	66.760	166.4287
710.000000	66.759	166.9301
720.000000	66.766	167.4296
730.000000	66.774	167.8948
740.000000	66.783	168.3422
750.000000	66.793	168.7270
762.000000	66.783	169.1022
775.000000	66.735	169.8408
788.000000	66.749	170.8189
800.000000	66.791	171.5406
812.000000	66.830	172.1918
825.000000	66.873	172.8875
838.000000	66.915	173.6064
850.000000	66.952	174.2626
862.000000	66.997	174.8836
875.000000	67.054	175.5462
885.000000	67.101	176.0632
900.000000	67.180	176.8007
912.000000	67.252	177.3483
925.000000	67.335	177.9113
938.000000	67.422	178.4490
950.000000	67.507	178.9168
962.000000	67.594	179.3526
975.000000	67.694	179.7917
988.000000	67.799	-179.8201
1000.000000	67.901	-179.4947
1015.000000	68.041	-179.1587
1030.000000	68.187	-178.8676
1044.000000	68.326	-178.6620
1060.000000	68.487	-178.4825
1075.000000	68.637	-178.3700
1090.000000	68.786	-178.3127
1106.000000	68.945	-178.3163
1120.000000	69.081	-178.3835
1138.000000	69.253	-178.5237
1150.000000	69.366	-178.6565
1172.000000	69.569	-178.9678
1180.000000	69.641	-179.1066
1206.000000	69.864	-179.6370
1220.000000	69.979	-179.9579
1241.000000	70.142	179.5041
1250.000000	70.205	179.2576
1265.000000	70.293	178.8304
1280.000000	70.368	178.3746
1315.000000	70.527	177.2507
1320.000000	70.548	177.0817
1340.000000	70.624	176.4142
1360.000000	70.690	175.7327
1380.000000	70.749	175.0504
1400.000000	70.801	174.3748
1430.000000	70.863	173.3910
1450.000000	70.895	172.7625
1475.000000	70.929	172.0409
1500.000000	70.954	171.3647
1525.000000	70.977	170.7553
1550.000000	70.999	170.2293
1575.000000	71.019	169.7496
1600.000000	71.050	169.3533
1625.000000	71.112	169.0116
1650.000000	71.186	168.7142
1675.000000	71.269	168.4497
1700.000000	71.360	168.2148
1725.000000	71.461	167.9854
1750.000000	71.573	167.7378
1775.000000	71.693	167.4746
1800.000000	71.821	167.1707
1825.000000	71.958	166.7989
1850.000000	72.100	166.3787
1875.000000	72.247	165.8799
1900.000000	72.394	165.2740
1925.000000	72.540	164.5986
1950.000000	72.682	163.8498
1975.000000	72.815	163.0231
2000.000000	72.941	162.1183
2030.000000	73.072	160.9371
2060.000000	73.186	159.6698
2090.000000	73.281	158.3580
2120.000000	73.354	157.0196
2140.000000	73.392	156.1117
2180.000000	73.441	154.2958
2200.000000	73.452	153.3933
2240.000000	73.449	151.6414
2270.000000	73.429	150.4001
2300.000000	73.394	149.2091
2330.000000	73.348	148.0818
2360.000000	73.290	147.0189
2400.000000	73.201	145.7364
2430.000000	73.126	144.8681
2470.000000	73.021	143.8317
2500.000000	72.942	143.1224
2540.000000	72.835	142.2966
2580.000000	72.727	141.5940
2620.000000	72.622	140.9869
2650.000000	72.548	140.5914
2690.000000	72.457	140.1505
2720.000000	72.393	139.8739
2760.000000	72.318	139.5399
2800.000000	72.253	139.2672
2850.000000	72.187	138.9903
2900.000000	72.138	138.7672
2950.000000	72.108	138.5541
3000.000000	72.095	138.3601
3040.000000	72.095	138.2073
3070.000000	72.102	138.0804
3110.000000	72.121	137.8883
3150.000000	72.150	137.6724
3200.000000	72.195	137.3613
3250.000000	72.250	136.9884
3300.000000	72.312	136.5323
3350.000000	72.381	135.9825
3400.000000	72.452	135.3380
3450.000000	72.521	134.5648
3500.000000	72.585	133.6684
3550.000000	72.639	132.6443
3600.000000	72.678	131.4673
3650.000000	72.698	130.1642
3700.000000	72.691	128.7412
3750.000000	72.649	127.2101
3820.000000	72.524	124.9323
3870.000000	72.378	123.2673
3950.000000	72.034	120.7501
4000.000000	71.739	119.3971
4060.000000	71.307	118.1909
4120.000000	70.800	117.6676
4180.000000	70.238	118.1003
4250.000000	69.570	120.1154
4310.000000	69.056	123.3123
4370.000000	68.681	127.7812
4440.000000	68.528	134.1101
4500.000000	68.690	139.7479
4550.000000	69.023	144.0536
4620.000000	69.718	148.7899
4680.000000	70.432	151.3262
4750.000000	71.289	152.4148
4820.000000	72.073	151.6956
4870.000000	72.551	150.2815
4940.000000	73.067	147.3674
5000.000000	73.356	144.3522
5080.000000	73.517	140.1325
5150.000000	73.479	136.6721
5220.000000	73.315	133.7141
5300.000000	73.016	131.1378
5380.000000	72.646	129.4605
5450.000000	72.288	128.6829
5520.000000	71.917	128.5410
5600.000000	71.505	129.0395
5700.000000	71.017	130.4692
5800.000000	70.584	132.6152
5900.000000	70.209	135.3198
6000.000000	69.900	138.4662
6080.000000	69.700	141.2405
6150.000000	69.565	143.8213
6220.000000	69.464	146.5125
6300.000000	69.407	149.6866
6400.000000	69.453	153.7689
6500.000000	69.588	157.9167
6600.000000	69.800	162.0784
6700.000000	70.092	166.1834
6800.000000	70.465	170.1425
6900.000000	70.921	173.9062
7000.000000	71.464	177.3350
7100.000000	72.097	-179.7173
7200.000000	72.810	-177.4673
7300.000000	73.582	-176.0724
7400.000000	74.393	-175.7105
7500.000000	75.210	-176.6432
7620.000000	76.107	-179.7184
7750.000000	76.822	174.7360
7880.000000	77.150	168.0087
8000.000000	77.096	162.1340
8120.000000	76.750	157.5104
8250.000000	76.254	154.0566
8380.000000	75.764	151.7322
8500.000000	75.344	149.9949
8620.000000	74.934	148.2300
8750.000000	74.437	146.1378
8850.000000	73.980	144.5262
9000.000000	73.146	142.6592
9120.000000	72.372	142.0855
9250.000000	71.488	142.6527
9380.000000	70.625	144.4292
9500.000000	69.896	146.9392
9620.000000	69.268	150.0844
9750.000000	68.733	153.8796
9880.000000	68.365	157.6631
10000.000000	68.186	160.7463
10150.000000	68.200	163.2468
10300.000000	68.346	162.8124
10440.000000	68.280	157.9642
10600.000000	67.092	147.4888
10750.000000	64.059	142.4260
10900.000000	59.683	157.4893
11060.000000	57.451	-167.1098
11200.000000	58.807	-142.2362
11380.000000	61.148	-125.2660
11500.000000	62.500	-119.0034
11720.000000	64.566	-112.4272
11800.000000	65.205	-111.1168
12060.000000	66.874	-109.6007
12200.000000	67.486	-109.9972
12410.000000	68.030	-110.9124
12500.000000	68.142	-111.0911
12650.000000	68.222	-110.7852
12800.000000	68.259	-109.6274
13150.000000	68.709	-105.0163
13200.000000	68.852	-104.4641
13400.000000	69.609	-104.0135
13600.000000	70.355	-108.1560
13800.000000	70.534	-116.1220
14000.000000	70.086	-124.2477
14300.000000	68.704	-135.7051
14500.000000	67.128	-142.3491
14750.000000	64.501	-145.6264
15000.000000	61.748	-142.5939
15250.000000	59.285	-135.2866
15500.000000	57.253	-125.6803
15750.000000	55.646	-115.3977
16000.000000	54.405	-105.7459
16250.000000	53.463	-97.3811
16500.000000	52.363	-89.5130
16750.000000	50.946	-79.4352
17000.000000	49.521	-65.3275
17250.000000	48.460	-47.9663
17500.000000	47.895	-28.8454
17750.000000	47.792	-8.9963
18000.000000	48.202	11.2835
18250.000000	49.360	30.9401
18500.000000	51.047	47.2066
18750.000000	53.002	60.1590
19000.000000	55.399	68.9445
19250.000000	57.692	69.3624
19500.000000	59.022	62.9587
19750.000000	59.287	55.4022
