* Measurement data measured by REW V5.20.13
* Source: EXCL: Microphone (USB Sound Device        ), MICROPHONE (Master Volume), L, volume: 0.250
* Format: 256k Log Swept Sine, 1 sweep at -6.0 dBFS with no timing reference
* Dated: Sep 18, 2023 8:46:32 PM
* REW Settings:
*  C-weighting compensation: Off
*  Target level: 75.0 dB
* Note: ; 
* Measurement: Fat Glam Foam L
* Smoothing: None
* Frequency Step: 1/48 octave
* Start Frequency: 1.000 Hz
*
* Freq(Hz)	SPL(dB)	Phase(degrees)
1.000000	62.329	136.4381
1.015000	62.200	135.6997
1.030000	62.069	134.9501
1.044000	61.942	134.2396
1.060000	61.794	133.4139
1.075000	61.651	132.6257
1.090000	61.505	131.8229
1.106000	61.344	130.9549
1.120000	61.200	130.2128
1.138000	61.012	129.2852
1.150000	60.885	128.6799
1.172000	60.645	127.5886
1.180000	60.557	127.1955
1.206000	60.263	125.9204
1.220000	60.101	125.2294
1.241000	59.853	124.1774
1.250000	59.745	123.7181
1.265000	59.562	122.9379
1.280000	59.376	122.1352
1.315000	58.929	120.1501
1.320000	58.864	119.8512
1.340000	58.599	118.6109
1.360000	58.329	117.2907
1.380000	58.052	115.8801
1.400000	57.770	114.3683
1.430000	57.335	111.8877
1.450000	57.037	110.0765
1.475000	56.652	107.6240
1.500000	56.223	105.0176
1.525000	55.751	102.2748
1.550000	55.245	99.3983
1.575000	54.716	96.3909
1.600000	54.172	93.2551
1.625000	53.625	89.9938
1.650000	53.083	86.6096
1.675000	52.557	83.1052
1.700000	52.056	79.4834
1.725000	51.590	75.7467
1.750000	51.169	71.8981
1.775000	50.802	67.9400
1.800000	50.500	63.8753
1.825000	50.271	59.7067
1.850000	50.120	55.3371
1.875000	50.031	50.5675
1.900000	49.999	45.4592
1.925000	50.017	40.0840
1.950000	50.080	34.5141
1.975000	50.182	28.8214
2.000000	50.318	23.0778
2.030000	50.517	16.2199
2.060000	50.746	9.5170
2.090000	50.997	3.0934
2.120000	51.258	-2.9264
2.140000	51.433	-6.6539
2.180000	51.774	-13.2570
2.200000	51.934	-16.0602
2.240000	52.285	-20.8575
2.270000	52.588	-23.8837
2.300000	52.918	-26.4793
2.330000	53.267	-28.6980
2.360000	53.630	-30.5933
2.400000	54.123	-32.7101
2.430000	54.492	-34.0595
2.470000	54.969	-35.6430
2.500000	55.308	-36.7383
2.540000	55.722	-38.1776
2.580000	56.082	-39.6630
2.620000	56.404	-40.8936
2.650000	56.627	-41.6191
2.690000	56.905	-42.3605
2.720000	57.100	-42.7724
2.760000	57.348	-43.1667
2.800000	57.585	-43.4266
2.850000	57.875	-43.6330
2.900000	58.166	-43.7925
2.950000	58.465	-43.9676
3.000000	58.756	-43.9803
3.040000	58.980	-43.8638
3.070000	59.145	-43.7184
3.110000	59.362	-43.4667
3.150000	59.577	-43.1711
3.200000	59.846	-42.7770
3.250000	60.119	-42.3997
3.300000	60.399	-42.0860
3.350000	60.687	-41.7806
3.400000	60.978	-41.4374
3.450000	61.271	-41.0784
3.500000	61.565	-40.7253
3.550000	61.859	-40.4003
3.600000	62.151	-40.1251
3.650000	62.438	-39.9217
3.700000	62.723	-39.7964
3.750000	63.010	-39.7215
3.820000	63.409	-39.6950
3.870000	63.690	-39.7292
3.950000	64.130	-39.8704
4.000000	64.394	-40.0095
4.060000	64.700	-40.2298
4.120000	64.996	-40.5283
4.180000	65.284	-40.8933
4.250000	65.608	-41.3816
4.310000	65.874	-41.8348
4.370000	66.129	-42.3029
4.440000	66.412	-42.8636
4.500000	66.641	-43.3860
4.550000	66.824	-43.8439
4.620000	67.068	-44.5040
4.680000	67.268	-45.0731
4.750000	67.492	-45.7226
4.820000	67.703	-46.3567
4.870000	67.846	-46.8133
4.940000	68.035	-47.4513
5.000000	68.190	-47.9907
5.080000	68.389	-48.6887
5.150000	68.558	-49.2704
5.220000	68.719	-49.8283
5.300000	68.893	-50.4425
5.380000	69.061	-51.0349
5.450000	69.205	-51.5381
5.520000	69.348	-52.0282
5.600000	69.509	-52.5614
5.700000	69.704	-53.1996
5.800000	69.897	-53.8296
5.900000	70.090	-54.4718
6.000000	70.283	-55.1082
6.080000	70.436	-55.6199
6.150000	70.569	-56.0781
6.220000	70.701	-56.5534
6.300000	70.851	-57.1176
6.400000	71.038	-57.8452
6.500000	71.222	-58.5992
6.600000	71.401	-59.3816
6.700000	71.575	-60.1987
6.800000	71.745	-61.0454
6.900000	71.909	-61.9090
7.000000	72.067	-62.7802
7.100000	72.219	-63.6702
7.200000	72.365	-64.5698
7.300000	72.506	-65.4640
7.400000	72.643	-66.3464
7.500000	72.773	-67.2260
7.620000	72.925	-68.2677
7.750000	73.086	-69.3662
7.880000	73.241	-70.4360
8.000000	73.382	-71.4022
8.120000	73.523	-72.3488
8.250000	73.674	-73.3489
8.380000	73.825	-74.3339
8.500000	73.964	-75.2377
8.620000	74.103	-76.1315
8.750000	74.253	-77.0957
8.850000	74.368	-77.8392
9.000000	74.538	-78.9541
9.120000	74.672	-79.8434
9.250000	74.814	-80.8043
9.380000	74.953	-81.7633
9.500000	75.077	-82.6387
9.620000	75.200	-83.5018
9.750000	75.331	-84.4256
9.880000	75.450	-85.3299
10.000000	75.544	-86.1443
10.150000	75.646	-87.1377
10.300000	75.739	-88.1015
10.440000	75.819	-88.9728
10.600000	75.904	-89.9407
10.750000	75.984	-90.8236
10.900000	76.061	-91.6829
11.060000	76.141	-92.5810
11.200000	76.209	-93.3504
11.380000	76.292	-94.3197
11.500000	76.345	-94.9545
11.720000	76.437	-96.0926
11.800000	76.468	-96.4980
12.060000	76.564	-97.7844
12.200000	76.611	-98.4563
12.410000	76.677	-99.4382
12.500000	76.711	-99.8507
12.650000	76.775	-100.5259
12.800000	76.840	-101.1895
13.150000	76.983	-102.7011
13.200000	77.003	-102.9139
13.400000	77.078	-103.7574
13.600000	77.149	-104.5904
13.800000	77.215	-105.4139
14.000000	77.278	-106.2270
14.300000	77.365	-107.4273
14.500000	77.420	-108.2145
14.750000	77.484	-109.1871
15.000000	77.546	-110.1486
15.250000	77.604	-111.1028
15.500000	77.658	-112.0492
15.750000	77.711	-112.9866
16.000000	77.762	-113.9110
16.250000	77.817	-114.8183
16.500000	77.874	-115.7076
16.750000	77.929	-116.5789
17.000000	77.985	-117.4374
17.250000	78.040	-118.2862
17.500000	78.095	-119.1294
17.750000	78.148	-119.9664
18.000000	78.198	-120.7928
18.250000	78.245	-121.6033
18.500000	78.288	-122.3870
18.750000	78.329	-123.1398
19.000000	78.369	-123.8582
19.250000	78.408	-124.5447
19.500000	78.448	-125.2071
19.750000	78.488	-125.8516
20.000000	78.529	-126.4893
20.299999	78.577	-127.2512
20.600000	78.622	-128.0098
20.900000	78.662	-128.7590
21.200001	78.695	-129.4861
21.400000	78.715	-129.9516
21.799999	78.749	-130.8326
22.000000	78.766	-131.2501
22.400000	78.801	-132.0553
22.700001	78.830	-132.6542
23.000000	78.859	-133.2680
23.299999	78.887	-133.9026
23.600000	78.910	-134.5515
24.000000	78.933	-135.4149
24.299999	78.945	-136.0368
24.700001	78.959	-136.8118
25.000000	78.972	-137.3560
25.400000	78.995	-138.0597
25.799999	79.025	-138.7805
26.200001	79.055	-139.5409
26.500000	79.073	-140.1263
26.900000	79.088	-140.8920
27.200001	79.095	-141.4271
27.600000	79.102	-142.0688
28.000000	79.115	-142.6431
28.500000	79.141	-143.3366
29.000000	79.172	-144.0758
29.500000	79.195	-144.8563
30.000000	79.204	-145.6096
30.400000	79.208	-146.1590
30.700001	79.211	-146.5435
31.100000	79.219	-147.0445
31.500000	79.229	-147.5550
32.000000	79.238	-148.2134
32.500000	79.241	-148.8653
33.000000	79.243	-149.4836
33.500000	79.248	-150.0792
34.000000	79.256	-150.6812
34.500000	79.262	-151.2959
35.000000	79.264	-151.9002
35.500000	79.262	-152.4663
36.000000	79.262	-152.9864
36.500000	79.264	-153.4734
37.000000	79.271	-153.9517
37.500000	79.281	-154.4421
38.200001	79.291	-155.1604
38.700001	79.292	-155.6796
39.500000	79.285	-156.4646
40.000000	79.279	-156.9142
40.599998	79.277	-157.4277
41.200001	79.280	-157.9482
41.799999	79.284	-158.4978
42.500000	79.281	-159.1510
43.099998	79.274	-159.6732
43.700001	79.269	-160.1501
44.400002	79.269	-160.6836
45.000000	79.270	-161.1437
45.500000	79.271	-161.5250
46.200001	79.270	-162.0429
46.799999	79.270	-162.4734
47.500000	79.271	-162.9793
48.200001	79.268	-163.4942
48.700001	79.263	-163.8531
49.400002	79.254	-164.3289
50.000000	79.248	-164.7235
50.799999	79.241	-165.2372
51.500000	79.238	-165.6672
52.200001	79.238	-166.1098
53.000000	79.235	-166.6416
53.799999	79.227	-167.1445
54.500000	79.221	-167.5676
55.200001	79.212	-167.9776
56.000000	79.203	-168.3924
57.000000	79.202	-168.9299
58.000000	79.194	-169.4965
59.000000	79.190	-170.0251
60.000000	79.181	-170.6086
60.799999	79.168	-171.0284
61.500000	79.160	-171.3745
62.200001	79.151	-171.7189
63.000000	79.140	-172.0731
64.000000	79.134	-172.5236
65.000000	79.123	-173.0226
66.000000	79.108	-173.4717
67.000000	79.100	-173.9253
68.000000	79.087	-174.4163
69.000000	79.068	-174.8504
70.000000	79.056	-175.2549
71.000000	79.044	-175.6502
72.000000	79.037	-176.0521
73.000000	79.024	-176.4755
74.000000	79.006	-176.8548
75.000000	78.993	-177.1762
76.199997	78.992	-177.6640
77.500000	78.964	-178.2489
78.800003	78.949	-178.7369
80.000000	78.920	-179.2433
81.199997	78.906	-179.5815
82.500000	78.893	179.8857
83.800003	78.867	179.4940
85.000000	78.858	179.0955
86.199997	78.838	178.6629
87.500000	78.818	178.2368
88.500000	78.805	177.9014
90.000000	78.787	177.4224
91.199997	78.770	177.0337
92.500000	78.754	176.6789
93.800003	78.738	176.2770
95.000000	78.718	175.9353
96.199997	78.704	175.5775
97.500000	78.681	175.1752
98.800003	78.664	174.8118
100.000000	78.647	174.4478
101.500000	78.625	174.0276
103.000000	78.601	173.6516
104.400002	78.583	173.2718
106.000000	78.556	172.8354
107.500000	78.534	172.4578
109.000000	78.513	172.0580
110.599998	78.495	171.6808
112.000000	78.474	171.3098
113.800003	78.449	170.8878
115.000000	78.431	170.5952
117.199997	78.396	170.0503
118.000000	78.385	169.8760
120.599998	78.348	169.2460
122.000000	78.330	168.9272
124.099998	78.298	168.4406
125.000000	78.281	168.2508
126.500000	78.266	167.9422
128.000000	78.250	167.6227
131.500000	78.210	166.8897
132.000000	78.203	166.7843
134.000000	78.179	166.3780
136.000000	78.152	165.9884
138.000000	78.132	165.5860
140.000000	78.108	165.1416
143.000000	78.074	164.6111
145.000000	78.052	164.2366
147.500000	78.018	163.7575
150.000000	77.981	163.3097
152.500000	77.955	162.8928
155.000000	77.923	162.4734
157.500000	77.893	162.0365
160.000000	77.857	161.6307
162.500000	77.810	161.2008
165.000000	77.762	160.7891
167.500000	77.714	160.4048
170.000000	77.671	160.0398
172.500000	77.627	159.6324
175.000000	77.582	159.2548
177.500000	77.533	158.8449
180.000000	77.485	158.5312
182.500000	77.437	158.2129
185.000000	77.391	157.8673
187.500000	77.342	157.5432
190.000000	77.300	157.1942
192.500000	77.253	156.8649
195.000000	77.206	156.5206
197.500000	77.158	156.2339
200.000000	77.110	155.9105
203.000000	77.060	155.5553
206.000000	77.017	155.1976
209.000000	76.964	154.8354
212.000000	76.919	154.4871
214.000000	76.884	154.2791
218.000000	76.818	153.8544
220.000000	76.785	153.6439
224.000000	76.716	153.2371
227.000000	76.667	152.9266
230.000000	76.622	152.6215
233.000000	76.575	152.3118
236.000000	76.519	152.0520
240.000000	76.448	151.6859
243.000000	76.404	151.3923
247.000000	76.340	151.0482
250.000000	76.294	150.8023
254.000000	76.229	150.4436
258.000000	76.158	150.1602
262.000000	76.087	149.8411
265.000000	76.040	149.6114
269.000000	75.981	149.3333
272.000000	75.936	149.1149
276.000000	75.875	148.7990
280.000000	75.809	148.5527
285.000000	75.724	148.2387
290.000000	75.645	147.9137
295.000000	75.570	147.6110
300.000000	75.496	147.3601
304.000000	75.424	147.1216
307.000000	75.376	146.9336
311.000000	75.312	146.7258
315.000000	75.249	146.5454
320.000000	75.170	146.2758
325.000000	75.103	146.0775
330.000000	75.016	145.8841
335.000000	74.933	145.6390
340.000000	74.858	145.4735
345.000000	74.776	145.2770
350.000000	74.708	145.0842
355.000000	74.627	144.9831
360.000000	74.553	144.7787
365.000000	74.471	144.6412
370.000000	74.394	144.4827
375.000000	74.328	144.4210
382.000000	74.221	144.2587
387.000000	74.145	144.1218
395.000000	74.024	143.9645
400.000000	73.953	143.8488
406.000000	73.871	143.7392
412.000000	73.782	143.6781
418.000000	73.704	143.6141
425.000000	73.598	143.5740
431.000000	73.511	143.4794
437.000000	73.431	143.4285
444.000000	73.333	143.3670
450.000000	73.257	143.4231
455.000000	73.186	143.3701
462.000000	73.091	143.3775
468.000000	73.006	143.4301
475.000000	72.917	143.3851
482.000000	72.828	143.4161
487.000000	72.760	143.4350
494.000000	72.670	143.5366
500.000000	72.594	143.5303
508.000000	72.500	143.6371
515.000000	72.411	143.7128
522.000000	72.322	143.7451
530.000000	72.229	143.8906
538.000000	72.130	144.0146
545.000000	72.048	144.1614
552.000000	71.967	144.3073
560.000000	71.877	144.4612
570.000000	71.758	144.6312
580.000000	71.656	144.8644
590.000000	71.545	145.1489
600.000000	71.437	145.4297
608.000000	71.352	145.6257
615.000000	71.278	145.8625
622.000000	71.206	146.0162
630.000000	71.121	146.3229
640.000000	71.025	146.6295
650.000000	70.929	147.0487
660.000000	70.830	147.4400
670.000000	70.731	147.7515
680.000000	70.654	148.1450
690.000000	70.568	148.5143
700.000000	70.480	149.0127
710.000000	70.401	149.4398
720.000000	70.315	149.9443
730.000000	70.245	150.3793
740.000000	70.169	150.8814
750.000000	70.104	151.3867
762.000000	70.010	152.0028
775.000000	69.921	152.6790
788.000000	69.848	153.3634
800.000000	69.776	154.0344
812.000000	69.699	154.6495
825.000000	69.635	155.3749
838.000000	69.565	156.1722
850.000000	69.505	156.8084
862.000000	69.443	157.5861
875.000000	69.397	158.2827
885.000000	69.360	158.8157
900.000000	69.321	159.7536
912.000000	69.279	160.4753
925.000000	69.257	161.1536
938.000000	69.241	161.9315
950.000000	69.224	162.5569
962.000000	69.217	163.2086
975.000000	69.206	163.8966
988.000000	69.205	164.5453
1000.000000	69.190	165.0085
1015.000000	69.225	165.9041
1030.000000	69.258	166.4370
1044.000000	69.290	167.0491
1060.000000	69.328	167.7196
1075.000000	69.350	168.2763
1090.000000	69.396	168.8553
1106.000000	69.434	169.2965
1120.000000	69.472	169.7545
1138.000000	69.530	170.3090
1150.000000	69.546	170.5363
1172.000000	69.612	171.1005
1180.000000	69.635	171.2639
1206.000000	69.694	171.8393
1220.000000	69.738	172.0920
1241.000000	69.786	172.4724
1250.000000	69.801	172.5516
1265.000000	69.812	172.8563
1280.000000	69.809	173.0750
1315.000000	69.815	173.5573
1320.000000	69.812	173.7265
1340.000000	69.814	173.8847
1360.000000	69.815	174.0529
1380.000000	69.815	174.4049
1400.000000	69.797	174.5872
1430.000000	69.788	175.0350
1450.000000	69.801	175.3500
1475.000000	69.809	175.7697
1500.000000	69.831	176.0723
1525.000000	69.865	176.4395
1550.000000	69.902	176.5295
1575.000000	69.953	176.5494
1600.000000	69.982	176.6469
1625.000000	70.051	176.4122
1650.000000	70.120	176.0767
1675.000000	70.151	175.6432
1700.000000	70.157	175.0533
1725.000000	70.139	174.4711
1750.000000	70.047	173.9411
1775.000000	69.937	173.6047
1800.000000	69.796	173.5552
1825.000000	69.643	173.9258
1850.000000	69.512	174.5397
1875.000000	69.418	175.4639
1900.000000	69.356	176.5220
1925.000000	69.346	177.6320
1950.000000	69.401	178.7252
1975.000000	69.480	179.5165
2000.000000	69.613	-179.6115
2030.000000	69.707	-179.5588
2060.000000	69.796	-179.3479
2090.000000	69.852	-179.2731
2120.000000	69.895	-179.2282
2140.000000	69.929	-179.1140
2180.000000	69.983	-179.0975
2200.000000	70.022	-179.1359
2240.000000	70.056	-179.2945
2270.000000	70.080	-179.4331
2300.000000	70.084	-179.6117
2330.000000	70.086	-179.8717
2360.000000	70.038	179.7682
2400.000000	69.947	179.5343
2430.000000	69.827	179.5417
2470.000000	69.621	-179.3775
2500.000000	69.534	-177.9251
2540.000000	69.671	-176.0975
2580.000000	69.877	-175.2776
2620.000000	70.009	-175.2020
2650.000000	70.090	-175.4437
2690.000000	70.162	-175.6381
2720.000000	70.177	-175.8018
2760.000000	70.181	-176.0434
2800.000000	70.184	-176.0229
2850.000000	70.181	-176.0759
2900.000000	70.154	-176.1454
2950.000000	70.134	-175.9938
3000.000000	70.085	-175.6825
3040.000000	70.072	-175.4555
3070.000000	70.092	-175.1612
3110.000000	70.101	-174.8913
3150.000000	70.131	-174.7161
3200.000000	70.136	-174.5244
3250.000000	70.112	-174.1202
3300.000000	70.105	-173.8821
3350.000000	70.113	-173.5220
3400.000000	70.100	-173.1386
3450.000000	70.112	-172.6744
3500.000000	70.114	-172.1947
3550.000000	70.144	-171.6575
3600.000000	70.169	-171.2633
3650.000000	70.215	-170.9594
3700.000000	70.240	-170.6913
3750.000000	70.283	-170.3936
3820.000000	70.310	-170.0361
3870.000000	70.320	-169.5885
3950.000000	70.357	-169.0246
4000.000000	70.390	-168.4279
4060.000000	70.481	-168.0592
4120.000000	70.574	-168.1277
4180.000000	70.533	-168.3666
4250.000000	70.361	-167.6388
4310.000000	70.350	-165.6875
4370.000000	70.612	-164.2049
4440.000000	70.929	-164.5581
4500.000000	71.062	-166.1519
4550.000000	70.989	-167.9565
4620.000000	70.289	-169.1216
4680.000000	69.706	-163.8166
4750.000000	70.217	-157.6604
4820.000000	70.807	-155.7851
4870.000000	71.134	-155.1385
4940.000000	71.508	-154.7580
5000.000000	71.784	-154.6724
5080.000000	72.112	-154.5923
5150.000000	72.380	-154.7211
5220.000000	72.653	-155.0304
5300.000000	72.931	-155.5341
5380.000000	73.218	-156.3055
5450.000000	73.463	-157.1275
5520.000000	73.667	-158.3311
5600.000000	73.865	-159.9115
5700.000000	74.050	-161.9312
5800.000000	74.196	-164.1295
5900.000000	74.243	-166.4480
6000.000000	74.223	-168.6741
6080.000000	74.128	-170.2265
6150.000000	74.018	-171.2867
6220.000000	73.882	-172.1077
6300.000000	73.744	-172.8065
6400.000000	73.703	-173.1971
6500.000000	73.674	-173.4085
6600.000000	73.661	-173.5570
6700.000000	73.687	-173.5740
6800.000000	73.741	-173.6910
6900.000000	73.813	-173.8968
7000.000000	73.832	-174.3092
7100.000000	73.796	-174.3751
7200.000000	73.776	-173.2072
7300.000000	74.027	-171.6724
7400.000000	74.414	-171.3659
7500.000000	74.784	-172.2651
7620.000000	75.177	-174.1039
7750.000000	75.482	-176.6160
7880.000000	75.768	-179.2942
8000.000000	76.050	177.6336
8120.000000	76.094	173.6310
8250.000000	76.050	168.6553
8380.000000	75.842	163.1076
8500.000000	75.403	157.7198
8620.000000	74.717	152.6871
8750.000000	73.727	149.3866
8850.000000	72.968	148.7627
9000.000000	72.059	149.8862
9120.000000	71.537	150.6658
9250.000000	71.072	151.5374
9380.000000	70.656	152.4196
9500.000000	70.364	153.3169
9620.000000	70.114	154.2856
9750.000000	69.955	155.3217
9880.000000	69.881	155.7893
10000.000000	69.935	155.7990
10150.000000	70.104	154.1889
10300.000000	70.169	151.1785
10440.000000	70.134	147.5618
10600.000000	69.827	141.8732
10750.000000	69.108	136.1600
10900.000000	67.918	132.1852
11060.000000	66.380	132.7584
11200.000000	65.414	136.2491
11380.000000	64.674	141.2480
11500.000000	64.341	143.9098
11720.000000	63.860	147.4093
11800.000000	63.648	148.4410
12060.000000	63.153	152.7184
12200.000000	62.916	154.8498
12410.000000	62.792	156.1902
12500.000000	62.690	156.1206
12650.000000	62.183	155.1546
12800.000000	61.338	154.7202
13150.000000	59.277	163.5732
13200.000000	59.117	165.6141
13400.000000	58.671	172.4550
13600.000000	58.341	178.9334
13800.000000	58.247	-176.0546
14000.000000	58.053	-170.0339
14300.000000	58.244	-162.2621
14500.000000	58.418	-159.2976
14750.000000	58.821	-156.8516
15000.000000	59.022	-155.8357
15250.000000	58.864	-154.9639
15500.000000	58.636	-154.2653
15750.000000	58.175	-151.2050
16000.000000	57.993	-144.4635
16250.000000	58.866	-138.4485
16500.000000	60.041	-133.9111
16750.000000	61.501	-131.8079
17000.000000	62.859	-134.2292
17250.000000	64.068	-138.2579
17500.000000	65.039	-144.3861
17750.000000	65.582	-151.3864
18000.000000	65.714	-158.6398
18250.000000	65.522	-165.8840
18500.000000	64.826	-173.1550
18750.000000	63.871	-178.1719
19000.000000	62.553	178.4863
19250.000000	61.096	179.8586
19500.000000	60.024	-176.2384
19750.000000	59.299	-173.0794
