* Measurement data measured by REW V5.20.13
* Source: EXCL: Microphone (USB Sound Device        ), MICROPHONE (Master Volume), L, volume: 0.250
* Format: 256k Log Swept Sine, 1 sweep at -6.0 dBFS with no timing reference
* Dated: Oct 11, 2023 9:41:43 AM
* REW Settings:
*  C-weighting compensation: Off
*  Target level: 75.0 dB
* Note: ; 
* Measurement: C0 Foam L
* Smoothing: None
* Frequency Step: 1/48 octave
* Start Frequency: 1.000 Hz
*
* Freq(Hz)	SPL(dB)	Phase(degrees)
1.000000	55.070	133.5089
1.015000	54.936	132.7067
1.030000	54.799	131.8903
1.044000	54.668	131.1146
1.060000	54.514	130.2107
1.075000	54.365	129.3453
1.090000	54.213	128.4616
1.106000	54.046	127.5034
1.120000	53.896	126.6829
1.138000	53.698	125.6559
1.150000	53.562	124.9847
1.172000	53.307	123.7725
1.180000	53.212	123.3351
1.206000	52.897	121.9138
1.220000	52.724	121.1420
1.241000	52.458	119.9646
1.250000	52.342	119.4499
1.265000	52.148	118.5744
1.280000	51.950	117.6726
1.315000	51.480	115.4379
1.320000	51.411	115.1010
1.340000	51.136	113.7019
1.360000	50.858	112.2115
1.380000	50.577	110.6178
1.400000	50.294	108.9089
1.430000	49.866	106.1037
1.450000	49.578	104.0548
1.475000	49.213	101.2732
1.500000	48.812	98.2507
1.525000	48.374	95.0087
1.550000	47.908	91.5685
1.575000	47.424	87.9515
1.600000	46.931	84.1790
1.625000	46.437	80.2723
1.650000	45.953	76.2527
1.675000	45.486	72.1416
1.700000	45.047	67.9603
1.725000	44.644	63.7301
1.750000	44.287	59.4724
1.775000	43.984	55.2085
1.800000	43.745	50.9596
1.825000	43.579	46.7472
1.850000	43.491	42.4931
1.875000	43.472	37.9974
1.900000	43.515	33.3008
1.925000	43.613	28.4543
1.950000	43.758	23.5091
1.975000	43.944	18.5163
2.000000	44.163	13.5271
2.030000	44.461	7.6166
2.060000	44.783	1.8730
2.090000	45.119	-3.6153
2.120000	45.456	-8.7599
2.140000	45.675	-11.9552
2.180000	46.083	-17.6652
2.200000	46.265	-20.1282
2.240000	46.636	-24.3661
2.270000	46.935	-27.0384
2.300000	47.248	-29.3307
2.330000	47.570	-31.2916
2.360000	47.897	-32.9699
2.400000	48.336	-34.8516
2.430000	48.661	-36.0590
2.470000	49.083	-37.4893
2.500000	49.385	-38.4904
2.540000	49.761	-39.8219
2.580000	50.101	-41.2142
2.620000	50.412	-42.3991
2.650000	50.631	-43.1239
2.690000	50.906	-43.9033
2.720000	51.102	-44.3691
2.760000	51.353	-44.8636
2.800000	51.595	-45.2496
2.850000	51.891	-45.6395
2.900000	52.186	-45.9984
2.950000	52.486	-46.2322
3.000000	52.778	-46.2691
3.040000	53.004	-46.3203
3.070000	53.171	-46.3669
3.110000	53.391	-46.4347
3.150000	53.607	-46.5030
3.200000	53.876	-46.5790
3.250000	54.145	-46.6324
3.300000	54.416	-46.6536
3.350000	54.689	-46.6705
3.400000	54.962	-46.6623
3.450000	55.234	-46.6434
3.500000	55.504	-46.6282
3.550000	55.772	-46.6312
3.600000	56.035	-46.6668
3.650000	56.295	-46.7493
3.700000	56.549	-46.8834
3.750000	56.802	-47.0512
3.820000	57.151	-47.3380
3.870000	57.395	-47.5770
3.950000	57.774	-48.0136
4.000000	58.002	-48.3172
4.060000	58.266	-48.7135
4.120000	58.521	-49.1598
4.180000	58.767	-49.6479
4.250000	59.042	-50.2547
4.310000	59.269	-50.7934
4.370000	59.486	-51.3370
4.440000	59.728	-51.9741
4.500000	59.924	-52.5434
4.550000	60.080	-53.0295
4.620000	60.289	-53.7171
4.680000	60.460	-54.3033
4.750000	60.652	-54.9707
4.820000	60.835	-55.6198
4.870000	60.959	-56.0808
4.940000	61.124	-56.7194
5.000000	61.259	-57.2569
5.080000	61.434	-57.9541
5.150000	61.583	-58.5408
5.220000	61.726	-59.1051
5.300000	61.883	-59.7275
5.380000	62.034	-60.3314
5.450000	62.164	-60.8491
5.520000	62.295	-61.3595
5.600000	62.441	-61.9230
5.700000	62.620	-62.6069
5.800000	62.796	-63.2878
5.900000	62.972	-63.9832
6.000000	63.147	-64.6800
6.080000	63.286	-65.2421
6.150000	63.406	-65.7428
6.220000	63.525	-66.2566
6.300000	63.659	-66.8607
6.400000	63.825	-67.6354
6.500000	63.987	-68.4293
6.600000	64.145	-69.2402
6.700000	64.298	-70.0737
6.800000	64.446	-70.9265
6.900000	64.590	-71.7867
7.000000	64.728	-72.6448
7.100000	64.861	-73.5103
7.200000	64.989	-74.3766
7.300000	65.113	-75.2322
7.400000	65.233	-76.0718
7.500000	65.349	-76.9018
7.620000	65.484	-77.8800
7.750000	65.628	-78.9103
7.880000	65.769	-79.9100
8.000000	65.897	-80.8116
8.120000	66.025	-81.6961
8.250000	66.164	-82.6310
8.380000	66.301	-83.5512
8.500000	66.428	-84.3947
8.620000	66.555	-85.2288
8.750000	66.691	-86.1259
8.850000	66.794	-86.8142
9.000000	66.948	-87.8425
9.120000	67.068	-88.6579
9.250000	67.195	-89.5324
9.380000	67.319	-90.3992
9.500000	67.430	-91.1855
9.620000	67.540	-91.9556
9.750000	67.657	-92.7740
9.880000	67.763	-93.5710
10.000000	67.845	-94.2853
10.150000	67.933	-95.1517
10.300000	68.014	-95.9902
10.440000	68.082	-96.7460
10.600000	68.155	-97.5845
10.750000	68.223	-98.3499
10.900000	68.290	-99.0951
11.060000	68.359	-99.8754
11.200000	68.417	-100.5450
11.380000	68.489	-101.3902
11.500000	68.534	-101.9446
11.720000	68.612	-102.9406
11.800000	68.638	-103.2957
12.060000	68.719	-104.4246
12.200000	68.757	-105.0151
12.410000	68.811	-105.8793
12.500000	68.840	-106.2428
12.650000	68.896	-106.8385
12.800000	68.953	-107.4250
13.150000	69.079	-108.7659
13.200000	69.096	-108.9554
13.400000	69.162	-109.7085
13.600000	69.224	-110.4556
13.800000	69.282	-111.1979
14.000000	69.337	-111.9339
14.300000	69.412	-113.0252
14.500000	69.459	-113.7425
14.750000	69.514	-114.6281
15.000000	69.567	-115.5018
15.250000	69.617	-116.3663
15.500000	69.666	-117.2234
15.750000	69.713	-118.0740
16.000000	69.762	-118.9185
16.250000	69.813	-119.7548
16.500000	69.867	-120.5814
16.750000	69.919	-121.3959
17.000000	69.970	-122.1956
17.250000	70.019	-122.9792
17.500000	70.067	-123.7453
17.750000	70.114	-124.4925
18.000000	70.161	-125.2207
18.250000	70.207	-125.9297
18.500000	70.251	-126.6204
18.750000	70.295	-127.2937
19.000000	70.338	-127.9506
19.250000	70.379	-128.5922
19.500000	70.418	-129.2186
19.750000	70.455	-129.8298
20.000000	70.490	-130.4252
20.299999	70.532	-131.1188
20.600000	70.571	-131.7906
20.900000	70.607	-132.4428
21.200001	70.640	-133.0789
21.400000	70.662	-133.4960
21.799999	70.701	-134.3160
22.000000	70.718	-134.7200
22.400000	70.751	-135.5173
22.700001	70.773	-136.1068
23.000000	70.794	-136.6902
23.299999	70.813	-137.2688
23.600000	70.831	-137.8432
24.000000	70.854	-138.6017
24.299999	70.869	-139.1636
24.700001	70.890	-139.9017
25.000000	70.905	-140.4467
25.400000	70.926	-141.1632
25.799999	70.947	-141.8689
26.200001	70.968	-142.5621
26.500000	70.983	-143.0709
26.900000	71.001	-143.7310
27.200001	71.015	-144.2110
27.600000	71.032	-144.8309
28.000000	71.049	-145.4301
28.500000	71.068	-146.1532
29.000000	71.085	-146.8499
29.500000	71.100	-147.5228
30.000000	71.112	-148.1758
30.400000	71.120	-148.6867
30.700001	71.125	-149.0643
31.100000	71.130	-149.5616
31.500000	71.134	-150.0528
32.000000	71.138	-150.6579
32.500000	71.140	-151.2526
33.000000	71.143	-151.8386
33.500000	71.146	-152.4210
34.000000	71.149	-153.0028
34.500000	71.150	-153.5779
35.000000	71.150	-154.1340
35.500000	71.150	-154.6641
36.000000	71.152	-155.1756
36.500000	71.155	-155.6810
37.000000	71.156	-156.1841
37.500000	71.155	-156.6753
38.200001	71.150	-157.3226
38.700001	71.147	-157.7600
39.500000	71.144	-158.4563
40.000000	71.141	-158.8981
40.599998	71.136	-159.4234
41.200001	71.129	-159.9288
41.799999	71.122	-160.4143
42.500000	71.116	-160.9691
43.099998	71.111	-161.4412
43.700001	71.105	-161.9035
44.400002	71.098	-162.4237
45.000000	71.093	-162.8622
45.500000	71.088	-163.2280
46.200001	71.077	-163.7258
46.799999	71.067	-164.1213
47.500000	71.059	-164.5632
48.200001	71.052	-165.0185
48.700001	71.046	-165.3503
49.400002	71.035	-165.8043
50.000000	71.025	-166.1804
50.799999	71.011	-166.6650
51.500000	70.999	-167.0687
52.200001	70.989	-167.4620
53.000000	70.977	-167.9088
53.799999	70.963	-168.3418
54.500000	70.952	-168.7090
55.200001	70.941	-169.0725
56.000000	70.928	-169.4879
57.000000	70.910	-170.0063
58.000000	70.891	-170.5108
59.000000	70.869	-170.9907
60.000000	70.849	-171.4292
60.799999	70.836	-171.7786
61.500000	70.824	-172.0945
62.200001	70.810	-172.4010
63.000000	70.795	-172.7363
64.000000	70.773	-173.1531
65.000000	70.750	-173.5609
66.000000	70.727	-173.9527
67.000000	70.704	-174.3329
68.000000	70.681	-174.6967
69.000000	70.659	-175.0553
70.000000	70.636	-175.4214
71.000000	70.610	-175.7645
72.000000	70.585	-176.0888
73.000000	70.563	-176.3971
74.000000	70.544	-176.7236
75.000000	70.519	-177.0610
76.199997	70.489	-177.4076
77.500000	70.460	-177.8032
78.800003	70.425	-178.1530
80.000000	70.401	-178.4731
81.199997	70.374	-178.8120
82.500000	70.342	-179.1643
83.800003	70.312	-179.4785
85.000000	70.285	-179.7893
86.199997	70.257	179.9390
87.500000	70.227	179.6252
88.500000	70.204	179.4047
90.000000	70.168	179.0800
91.199997	70.143	178.8308
92.500000	70.110	178.5583
93.800003	70.082	178.3207
95.000000	70.054	178.0835
96.199997	70.027	177.8609
97.500000	69.997	177.6166
98.800003	69.969	177.3894
100.000000	69.941	177.1711
101.500000	69.906	176.9393
103.000000	69.873	176.7022
104.400002	69.841	176.4929
106.000000	69.807	176.2537
107.500000	69.773	176.0232
109.000000	69.739	175.8188
110.599998	69.706	175.6063
112.000000	69.673	175.4214
113.800003	69.637	175.2103
115.000000	69.610	175.0618
117.199997	69.565	174.8223
118.000000	69.547	174.7332
120.599998	69.491	174.4615
122.000000	69.462	174.3259
124.099998	69.417	174.1271
125.000000	69.400	174.0369
126.500000	69.371	173.9055
128.000000	69.348	173.7961
131.500000	69.290	173.5175
132.000000	69.283	173.4866
134.000000	69.249	173.3298
136.000000	69.221	173.2090
138.000000	69.191	173.0637
140.000000	69.157	172.9392
143.000000	69.110	172.7861
145.000000	69.082	172.7073
147.500000	69.041	172.5792
150.000000	69.005	172.4724
152.500000	68.968	172.3820
155.000000	68.931	172.2990
157.500000	68.894	172.2267
160.000000	68.857	172.1566
162.500000	68.807	172.0973
165.000000	68.763	172.0296
167.500000	68.714	172.0078
170.000000	68.667	171.9723
172.500000	68.621	171.9358
175.000000	68.576	171.9034
177.500000	68.533	171.8849
180.000000	68.487	171.8853
182.500000	68.441	171.8832
185.000000	68.401	171.8857
187.500000	68.358	171.8949
190.000000	68.314	171.9225
192.500000	68.275	171.9318
195.000000	68.235	171.9628
197.500000	68.195	171.9795
200.000000	68.157	171.9964
203.000000	68.118	172.0390
206.000000	68.077	172.0936
209.000000	68.039	172.1524
212.000000	68.002	172.2050
214.000000	67.980	172.2267
218.000000	67.933	172.3552
220.000000	67.910	172.3920
224.000000	67.863	172.4859
227.000000	67.829	172.5656
230.000000	67.794	172.6699
233.000000	67.762	172.7584
236.000000	67.733	172.8472
240.000000	67.690	172.9800
243.000000	67.654	173.0820
247.000000	67.620	173.2213
250.000000	67.592	173.3379
254.000000	67.555	173.5024
258.000000	67.520	173.6440
262.000000	67.489	173.7967
265.000000	67.461	173.9167
269.000000	67.429	174.0773
272.000000	67.406	174.2408
276.000000	67.376	174.3869
280.000000	67.342	174.5552
285.000000	67.308	174.7860
290.000000	67.271	175.0027
295.000000	67.238	175.2477
300.000000	67.206	175.4829
304.000000	67.181	175.6472
307.000000	67.164	175.7999
311.000000	67.139	176.0093
315.000000	67.112	176.2005
320.000000	67.084	176.4345
325.000000	67.054	176.6884
330.000000	67.028	176.9348
335.000000	67.000	177.1868
340.000000	66.974	177.4334
345.000000	66.949	177.7161
350.000000	66.927	177.9482
355.000000	66.903	178.2462
360.000000	66.881	178.5029
365.000000	66.859	178.7461
370.000000	66.837	179.0179
375.000000	66.825	179.2732
382.000000	66.791	179.6588
387.000000	66.773	179.9466
395.000000	66.748	-179.6336
400.000000	66.736	-179.3672
406.000000	66.715	-179.0374
412.000000	66.698	-178.7173
418.000000	66.679	-178.4067
425.000000	66.665	-178.0232
431.000000	66.651	-177.6950
437.000000	66.636	-177.4148
444.000000	66.622	-177.0075
450.000000	66.611	-176.7098
455.000000	66.604	-176.4373
462.000000	66.588	-176.0468
468.000000	66.579	-175.7518
475.000000	66.567	-175.3885
482.000000	66.555	-174.9930
487.000000	66.548	-174.7436
494.000000	66.537	-174.3729
500.000000	66.526	-174.0229
508.000000	66.520	-173.5959
515.000000	66.515	-173.2182
522.000000	66.511	-172.8608
530.000000	66.501	-172.4278
538.000000	66.498	-171.9927
545.000000	66.492	-171.6060
552.000000	66.489	-171.2380
560.000000	66.483	-170.7842
570.000000	66.484	-170.2030
580.000000	66.480	-169.6663
590.000000	66.479	-169.0988
600.000000	66.481	-168.5284
608.000000	66.487	-168.1016
615.000000	66.486	-167.6877
622.000000	66.493	-167.2853
630.000000	66.492	-166.8118
640.000000	66.498	-166.2505
650.000000	66.510	-165.6675
660.000000	66.524	-165.0612
670.000000	66.535	-164.4708
680.000000	66.549	-163.8867
690.000000	66.567	-163.2666
700.000000	66.586	-162.7063
710.000000	66.607	-162.0985
720.000000	66.628	-161.4777
730.000000	66.651	-160.9056
740.000000	66.673	-160.2807
750.000000	66.705	-159.6855
762.000000	66.738	-158.9424
775.000000	66.782	-158.1980
788.000000	66.829	-157.3799
800.000000	66.876	-156.6565
812.000000	66.914	-155.9481
825.000000	66.965	-155.2067
838.000000	67.017	-154.4667
850.000000	67.061	-153.7980
862.000000	67.120	-153.1571
875.000000	67.160	-152.4342
885.000000	67.223	-151.9122
900.000000	67.232	-151.2451
912.000000	67.276	-149.9523
925.000000	67.455	-148.9415
938.000000	67.600	-148.4202
950.000000	67.706	-148.0133
962.000000	67.803	-147.7118
975.000000	67.875	-147.7029
988.000000	67.919	-147.8478
1000.000000	67.924	-147.6698
1015.000000	67.931	-146.6030
1030.000000	68.029	-145.4540
1044.000000	68.174	-144.5562
1060.000000	68.348	-143.7705
1075.000000	68.505	-143.2265
1090.000000	68.658	-142.8212
1106.000000	68.818	-142.4913
1120.000000	68.951	-142.2112
1138.000000	69.117	-141.9802
1150.000000	69.223	-141.8146
1172.000000	69.408	-141.5987
1180.000000	69.479	-141.5575
1206.000000	69.675	-141.4135
1220.000000	69.787	-141.3754
1241.000000	69.935	-141.2968
1250.000000	69.998	-141.2935
1265.000000	70.073	-141.2913
1280.000000	70.144	-141.2597
1315.000000	70.302	-141.2872
1320.000000	70.319	-141.2786
1340.000000	70.400	-141.3188
1360.000000	70.481	-141.3420
1380.000000	70.560	-141.4087
1400.000000	70.629	-141.4289
1430.000000	70.733	-141.4761
1450.000000	70.801	-141.5263
1475.000000	70.885	-141.6110
1500.000000	70.961	-141.6820
1525.000000	71.039	-141.7641
1550.000000	71.113	-141.8320
1575.000000	71.191	-141.9033
1600.000000	71.261	-142.0387
1625.000000	71.372	-142.1479
1650.000000	71.477	-142.2737
1675.000000	71.579	-142.4178
1700.000000	71.680	-142.5473
1725.000000	71.784	-142.7457
1750.000000	71.881	-142.8932
1775.000000	71.977	-143.0725
1800.000000	72.072	-143.2935
1825.000000	72.162	-143.5027
1850.000000	72.251	-143.7392
1875.000000	72.340	-143.9868
1900.000000	72.425	-144.2480
1925.000000	72.507	-144.4959
1950.000000	72.589	-144.7821
1975.000000	72.666	-145.0488
2000.000000	72.742	-145.4214
2030.000000	72.825	-145.7169
2060.000000	72.905	-146.0905
2090.000000	72.986	-146.4693
2120.000000	73.056	-146.8438
2140.000000	73.105	-147.0910
2180.000000	73.202	-147.6526
2200.000000	73.251	-147.9158
2240.000000	73.348	-148.4771
2270.000000	73.415	-148.9639
2300.000000	73.483	-149.4466
2330.000000	73.554	-149.9748
2360.000000	73.618	-150.5481
2400.000000	73.703	-151.3523
2430.000000	73.761	-151.9968
2470.000000	73.829	-152.9242
2500.000000	73.874	-153.6739
2540.000000	73.923	-154.6855
2580.000000	73.961	-155.7301
2620.000000	73.979	-156.7784
2650.000000	73.988	-157.5727
2690.000000	73.994	-158.5894
2720.000000	73.988	-159.3556
2760.000000	73.976	-160.3265
2800.000000	73.956	-161.2149
2850.000000	73.918	-162.2688
2900.000000	73.879	-163.1940
2950.000000	73.836	-164.0468
3000.000000	73.783	-164.7810
3040.000000	73.754	-165.3729
3070.000000	73.726	-165.7196
3110.000000	73.693	-166.1832
3150.000000	73.664	-166.6038
3200.000000	73.627	-167.0386
3250.000000	73.597	-167.4444
3300.000000	73.572	-167.8155
3350.000000	73.557	-168.1228
3400.000000	73.542	-168.4148
3450.000000	73.535	-168.7006
3500.000000	73.539	-168.9531
3550.000000	73.553	-169.1526
3600.000000	73.560	-169.4404
3650.000000	73.584	-169.6833
3700.000000	73.613	-169.9414
3750.000000	73.641	-170.2396
3820.000000	73.696	-170.6842
3870.000000	73.742	-171.0666
3950.000000	73.820	-171.7294
4000.000000	73.878	-172.2954
4060.000000	73.936	-172.8624
4120.000000	74.001	-173.5778
4180.000000	74.069	-174.4045
4250.000000	74.140	-175.5474
4310.000000	74.202	-176.5772
4370.000000	74.251	-177.7704
4440.000000	74.298	-179.2521
4500.000000	74.326	179.3622
4550.000000	74.333	178.1434
4620.000000	74.334	176.3968
4680.000000	74.305	174.8584
4750.000000	74.260	172.9939
4820.000000	74.180	171.1661
4870.000000	74.109	169.8933
4940.000000	73.987	168.1065
5000.000000	73.855	166.6274
5080.000000	73.635	164.8445
5150.000000	73.421	163.4015
5220.000000	73.180	162.1361
5300.000000	72.886	160.9118
5380.000000	72.579	159.8287
5450.000000	72.277	159.1184
5520.000000	71.963	158.7527
5600.000000	71.647	158.7231
5700.000000	71.244	158.6893
5800.000000	70.853	158.9716
5900.000000	70.472	159.6267
6000.000000	70.115	160.4999
6080.000000	69.848	161.3806
6150.000000	69.643	162.2588
6220.000000	69.446	163.2185
6300.000000	69.235	164.4199
6400.000000	69.113	166.0279
6500.000000	69.023	167.5378
6600.000000	68.967	169.1210
6700.000000	68.950	170.5657
6800.000000	68.951	171.9292
6900.000000	68.985	173.1724
7000.000000	69.013	174.3549
7100.000000	69.076	175.4868
7200.000000	69.165	176.4724
7300.000000	69.266	177.3364
7400.000000	69.385	178.0005
7500.000000	69.522	178.5827
7620.000000	69.718	179.0129
7750.000000	69.950	178.9543
7880.000000	70.230	178.5384
8000.000000	70.487	177.3094
8120.000000	70.625	175.1807
8250.000000	70.652	171.7175
8380.000000	70.456	167.5471
8500.000000	70.063	163.8422
8620.000000	69.530	160.8008
8750.000000	68.832	158.6581
8850.000000	68.279	157.5965
9000.000000	67.431	157.0283
9120.000000	66.792	157.2748
9250.000000	66.131	158.1003
9380.000000	65.474	159.4817
9500.000000	64.937	161.1286
9620.000000	64.470	163.0027
9750.000000	63.968	165.4497
9880.000000	63.534	168.0620
10000.000000	63.179	170.7451
10150.000000	62.909	174.0972
10300.000000	62.675	177.6849
10440.000000	62.565	-178.7722
10600.000000	62.487	-174.6162
10750.000000	62.490	-170.6911
10900.000000	62.592	-166.6565
11060.000000	62.814	-162.1991
11200.000000	63.077	-158.3630
11380.000000	63.612	-153.2082
11500.000000	64.109	-149.8292
11720.000000	65.526	-144.4159
11800.000000	66.220	-143.1522
12060.000000	68.990	-147.1805
12200.000000	70.269	-155.5368
12410.000000	71.079	-173.4060
12500.000000	70.966	178.4710
12650.000000	70.221	166.6880
12800.000000	69.056	157.8937
13150.000000	65.875	148.5374
13200.000000	65.441	148.1183
13400.000000	63.787	147.9702
13600.000000	62.322	149.6913
13800.000000	61.071	152.4153
14000.000000	59.974	155.5735
14300.000000	58.515	161.7331
14500.000000	57.758	165.9940
14750.000000	56.965	170.9453
15000.000000	56.433	175.9272
15250.000000	56.013	-179.3215
15500.000000	55.713	-175.4163
15750.000000	55.567	-171.5405
16000.000000	55.496	-169.2943
16250.000000	55.766	-167.6447
16500.000000	56.126	-167.3087
16750.000000	56.365	-168.2762
17000.000000	56.461	-171.2367
17250.000000	56.307	-178.1512
17500.000000	53.953	162.9605
17750.000000	49.637	-110.0662
18000.000000	55.923	-134.3365
18250.000000	56.664	-143.7948
18500.000000	56.679	-148.8011
18750.000000	56.543	-153.2630
19000.000000	56.205	-155.7791
19250.000000	55.477	-160.4425
19500.000000	54.221	-163.8153
19750.000000	52.632	-166.1274
