* Measurement data measured by REW V5.20.13
* Source: C:\Users\marcu\OneDrive\Desktop\audio_db\AKG N5005 f. Bass Foam R.txt
* Format: Comma/Tab/Space delimited data
* Dated: Aug 14, 2023 6:58:21 PM
* REW Settings:
*  C-weighting compensation: Off
*  Target level: 75.0 dB
* Note: ; Measurement imported from C:\Users\marcu\OneDrive\Desktop\audio_db\AKG N5005 f. Bass Foam R.txt Format: Comma/Tab/Space delimited data 54613 values loaded, 0 Hz to 20,000 Hz 
* Measurement: AKG N5005 f. Bass Foam R
* Smoothing: None
* Frequency Step: 1/48 octave
* Start Frequency: 1.000 Hz
*
* Freq(Hz)	SPL(dB)	Phase(degrees)
1.000000	67.558	-62.5124
1.015000	67.378	-63.3868
1.030000	67.191	-64.2505
1.044000	67.009	-65.0463
1.060000	66.793	-65.9426
1.075000	66.581	-66.7693
1.090000	66.360	-67.5819
1.106000	66.113	-68.4570
1.120000	65.889	-69.3620
1.138000	65.588	-70.7253
1.150000	65.380	-71.7395
1.172000	64.986	-73.7702
1.180000	64.838	-74.5512
1.206000	64.344	-77.1857
1.220000	64.069	-78.6322
1.241000	63.646	-80.7837
1.250000	63.461	-81.6845
1.265000	63.149	-83.1377
1.280000	62.832	-84.5090
1.315000	62.073	-87.2513
1.320000	61.963	-87.5773
1.340000	61.519	-88.6800
1.360000	61.069	-89.4166
1.380000	60.616	-89.7283
1.400000	60.158	-89.5563
1.430000	59.469	-88.2624
1.450000	59.008	-86.6235
1.475000	58.423	-83.5592
1.500000	57.757	-79.0258
1.525000	57.010	-73.1411
1.550000	56.203	-66.1257
1.575000	55.357	-58.2000
1.600000	54.493	-49.5844
1.625000	53.632	-40.4996
1.650000	52.794	-31.1658
1.675000	52.002	-21.8037
1.700000	51.275	-12.6336
1.725000	50.635	-3.8761
1.750000	50.102	4.2484
1.775000	49.698	11.5194
1.800000	49.444	17.7165
1.825000	49.360	22.6191
1.850000	49.473	26.2273
1.875000	49.790	28.9995
1.900000	50.285	31.0340
1.925000	50.931	32.4095
1.950000	51.702	33.2046
1.975000	52.571	33.4982
2.000000	53.510	33.3688
2.030000	54.693	32.7661
2.060000	55.892	31.8037
2.090000	57.062	30.6176
2.120000	58.154	29.3437
2.140000	58.817	28.5129
2.180000	59.924	27.0767
2.200000	60.341	26.5490
2.240000	61.012	25.3289
2.270000	61.423	24.1143
2.300000	61.765	22.6840
2.330000	62.049	21.0751
2.360000	62.281	19.3246
2.400000	62.529	16.8339
2.430000	62.680	14.8963
2.470000	62.852	12.2906
2.500000	62.971	10.3674
2.540000	63.132	7.9149
2.580000	63.311	5.6431
2.620000	63.462	3.3763
2.650000	63.552	1.6547
2.690000	63.643	-0.6578
2.720000	63.692	-2.3972
2.760000	63.735	-4.7113
2.800000	63.757	-7.0064
2.850000	63.759	-9.8265
2.900000	63.742	-12.5661
2.950000	63.711	-15.2100
3.000000	63.649	-17.8440
3.040000	63.576	-19.9397
3.070000	63.510	-21.4924
3.110000	63.408	-23.5220
3.150000	63.293	-25.4880
3.200000	63.135	-27.8271
3.250000	62.966	-30.0003
3.300000	62.790	-31.9714
3.350000	62.591	-33.7996
3.400000	62.363	-35.5232
3.450000	62.117	-37.1112
3.500000	61.864	-38.5329
3.550000	61.615	-39.7575
3.600000	61.383	-40.7541
3.650000	61.178	-41.4921
3.700000	60.996	-41.9161
3.750000	60.810	-41.9929
3.820000	60.561	-41.6569
3.870000	60.409	-41.2044
3.950000	60.240	-40.3247
4.000000	60.200	-39.7971
4.060000	60.236	-39.2371
4.120000	60.361	-38.4758
4.180000	60.555	-37.5927
4.250000	60.847	-36.5979
4.310000	61.132	-35.9379
4.370000	61.431	-35.6056
4.440000	61.794	-35.7533
4.500000	62.152	-36.2206
4.550000	62.474	-36.8049
4.620000	62.940	-37.8638
4.680000	63.334	-38.9423
4.750000	63.761	-40.3317
4.820000	64.151	-41.8991
4.870000	64.421	-43.1958
4.940000	64.787	-45.1823
5.000000	65.085	-46.9729
5.080000	65.454	-49.3679
5.150000	65.744	-51.3750
5.220000	66.005	-53.4141
5.300000	66.271	-55.7828
5.380000	66.508	-58.1064
5.450000	66.696	-60.0320
5.520000	66.867	-61.8054
5.600000	67.033	-63.7221
5.700000	67.204	-65.9477
5.800000	67.355	-67.9215
5.900000	67.501	-69.5782
6.000000	67.626	-70.9102
6.080000	67.718	-71.7819
6.150000	67.803	-72.4310
6.220000	67.899	-72.9968
6.300000	68.021	-73.5033
6.400000	68.185	-73.9023
6.500000	68.364	-74.1800
6.600000	68.564	-74.4846
6.700000	68.792	-74.7845
6.800000	69.041	-75.0546
6.900000	69.297	-75.3855
7.000000	69.550	-75.8587
7.100000	69.812	-76.4508
7.200000	70.073	-77.1328
7.300000	70.321	-77.8877
7.400000	70.550	-78.7225
7.500000	70.765	-79.6549
7.620000	71.004	-80.8211
7.750000	71.230	-82.0511
7.880000	71.422	-83.2941
8.000000	71.578	-84.3971
8.120000	71.717	-85.3926
8.250000	71.844	-86.3751
8.380000	71.960	-87.2625
8.500000	72.066	-87.9854
8.620000	72.166	-88.6095
8.750000	72.275	-89.2323
8.850000	72.363	-89.7016
9.000000	72.500	-90.3524
9.120000	72.611	-90.8815
9.250000	72.733	-91.5061
9.380000	72.858	-92.1618
9.500000	72.969	-92.8037
9.620000	73.073	-93.4930
9.750000	73.181	-94.2858
9.880000	73.281	-95.0973
10.000000	73.365	-95.8581
10.150000	73.458	-96.8269
10.300000	73.545	-97.7731
10.440000	73.617	-98.6340
10.600000	73.695	-99.5949
10.750000	73.768	-100.4644
10.900000	73.839	-101.3124
11.060000	73.918	-102.2210
11.200000	73.989	-103.0146
11.380000	74.082	-104.0583
11.500000	74.145	-104.7766
11.720000	74.259	-106.1255
11.800000	74.298	-106.6269
12.060000	74.422	-108.2827
12.200000	74.483	-109.1671
12.410000	74.570	-110.4804
12.500000	74.607	-111.0270
12.650000	74.666	-111.9185
12.800000	74.725	-112.7868
13.150000	74.868	-114.7186
13.200000	74.889	-114.9884
13.400000	74.976	-116.0518
13.600000	75.063	-117.1023
13.800000	75.150	-118.1463
14.000000	75.234	-119.1742
14.300000	75.354	-120.6774
14.500000	75.428	-121.6352
14.750000	75.517	-122.7742
15.000000	75.603	-123.8470
15.250000	75.687	-124.8664
15.500000	75.769	-125.8522
15.750000	75.849	-126.8150
16.000000	75.923	-127.7664
16.250000	75.990	-128.7006
16.500000	76.050	-129.6134
16.750000	76.102	-130.4970
17.000000	76.148	-131.3523
17.250000	76.190	-132.1842
17.500000	76.230	-133.0005
17.750000	76.265	-133.8126
18.000000	76.296	-134.6230
18.250000	76.324	-135.4341
18.500000	76.348	-136.2429
18.750000	76.370	-137.0491
19.000000	76.390	-137.8524
19.250000	76.409	-138.6573
19.500000	76.426	-139.4665
19.750000	76.442	-140.2815
20.000000	76.457	-141.0994
20.299999	76.473	-142.0740
20.600000	76.486	-143.0302
20.900000	76.500	-143.9589
21.200001	76.517	-144.8593
21.400000	76.529	-145.4485
21.799999	76.558	-146.6087
22.000000	76.573	-147.1817
22.400000	76.604	-148.3112
22.700001	76.626	-149.1366
23.000000	76.647	-149.9393
23.299999	76.669	-150.7233
23.600000	76.688	-151.4940
24.000000	76.709	-152.5043
24.299999	76.719	-153.2409
24.700001	76.724	-154.1732
25.000000	76.724	-154.8233
25.400000	76.723	-155.6302
25.799999	76.727	-156.4090
26.200001	76.735	-157.2154
26.500000	76.738	-157.8584
26.900000	76.735	-158.7603
27.200001	76.723	-159.4446
27.600000	76.699	-160.3238
28.000000	76.669	-161.1290
28.500000	76.639	-162.0443
29.000000	76.628	-162.9560
29.500000	76.626	-163.9547
30.000000	76.616	-165.0238
30.400000	76.597	-165.8550
30.700001	76.579	-166.4300
31.100000	76.557	-167.1264
31.500000	76.542	-167.7746
32.000000	76.531	-168.5827
32.500000	76.518	-169.4099
33.000000	76.498	-170.2151
33.500000	76.472	-170.9646
34.000000	76.445	-171.6696
34.500000	76.419	-172.3565
35.000000	76.393	-173.0383
35.500000	76.367	-173.7300
36.000000	76.339	-174.4470
36.500000	76.305	-175.1754
37.000000	76.267	-175.8730
37.500000	76.232	-176.5315
38.200001	76.193	-177.4831
38.700001	76.160	-178.2157
39.500000	76.090	-179.2955
40.000000	76.048	-179.8597
40.599998	76.011	179.4694
41.200001	75.969	178.7465
41.799999	75.913	178.0942
42.500000	75.855	177.5034
43.099998	75.824	176.9665
43.700001	75.789	176.3061
44.400002	75.721	175.5618
45.000000	75.662	175.0555
45.500000	75.624	174.6456
46.200001	75.573	173.9960
46.799999	75.522	173.4408
47.500000	75.465	172.8617
48.200001	75.417	172.2548
48.700001	75.378	171.7889
49.400002	75.317	171.1776
50.000000	75.265	170.7162
50.799999	75.202	170.1174
51.500000	75.147	169.5938
52.200001	75.091	169.0886
53.000000	75.027	168.5097
53.799999	74.957	167.9440
54.500000	74.895	167.4963
55.200001	74.836	167.0685
56.000000	74.769	166.5663
57.000000	74.683	165.9711
58.000000	74.603	165.3580
59.000000	74.508	164.7426
60.000000	74.420	164.2944
60.799999	74.366	163.8538
61.500000	74.303	163.4130
62.200001	74.229	163.0895
63.000000	74.159	162.8346
64.000000	74.086	162.4299
65.000000	74.001	162.0108
66.000000	73.917	161.6307
67.000000	73.830	161.2363
68.000000	73.743	160.8994
69.000000	73.663	160.5869
70.000000	73.589	160.2557
71.000000	73.512	159.8890
72.000000	73.426	159.5880
73.000000	73.348	159.3154
74.000000	73.263	159.0272
75.000000	73.179	158.8392
76.199997	73.094	158.5404
77.500000	72.989	158.2578
78.800003	72.901	157.9676
80.000000	72.811	157.7114
81.199997	72.724	157.4821
82.500000	72.624	157.3052
83.800003	72.537	157.1141
85.000000	72.447	156.9230
86.199997	72.359	156.7860
87.500000	72.270	156.6580
88.500000	72.202	156.5446
90.000000	72.097	156.4476
91.199997	72.021	156.3821
92.500000	71.939	156.2951
93.800003	71.857	156.1882
95.000000	71.776	156.1269
96.199997	71.703	156.1105
97.500000	71.627	156.0717
98.800003	71.549	156.0398
100.000000	71.477	156.0377
101.500000	71.391	156.0525
103.000000	71.306	156.0506
104.400002	71.226	156.0510
106.000000	71.136	156.1052
107.500000	71.063	156.1551
109.000000	70.989	156.1982
110.599998	70.909	156.2740
112.000000	70.836	156.3443
113.800003	70.749	156.4782
115.000000	70.697	156.5447
117.199997	70.600	156.6538
118.000000	70.568	156.7164
120.599998	70.458	156.9094
122.000000	70.398	157.0546
124.099998	70.310	157.2487
125.000000	70.274	157.3264
126.500000	70.218	157.4603
128.000000	70.168	157.5776
131.500000	70.042	157.9254
132.000000	70.024	157.9789
134.000000	69.955	158.1765
136.000000	69.887	158.3474
138.000000	69.825	158.5825
140.000000	69.774	158.8135
143.000000	69.687	159.1392
145.000000	69.634	159.3514
147.500000	69.569	159.6273
150.000000	69.512	159.9167
152.500000	69.454	160.1916
155.000000	69.395	160.4720
157.500000	69.342	160.7261
160.000000	69.295	160.9846
162.500000	69.250	161.2580
165.000000	69.202	161.5406
167.500000	69.156	161.8294
170.000000	69.115	162.0983
172.500000	69.078	162.3498
175.000000	69.040	162.6157
177.500000	69.002	162.8877
180.000000	68.967	163.1440
182.500000	68.936	163.3743
185.000000	68.905	163.6160
187.500000	68.879	163.8571
190.000000	68.855	164.0844
192.500000	68.830	164.3043
195.000000	68.806	164.5475
197.500000	68.779	164.7864
200.000000	68.756	164.9958
203.000000	68.731	165.2188
206.000000	68.706	165.4778
209.000000	68.683	165.7396
212.000000	68.661	165.9791
214.000000	68.647	166.1302
218.000000	68.618	166.4315
220.000000	68.606	166.5724
224.000000	68.582	166.8331
227.000000	68.565	167.0483
230.000000	68.547	167.2400
233.000000	68.528	167.4506
236.000000	68.511	167.6559
240.000000	68.492	167.8748
243.000000	68.480	168.0597
247.000000	68.464	168.3124
250.000000	68.450	168.4699
254.000000	68.433	168.6686
258.000000	68.417	168.8852
262.000000	68.397	169.1181
265.000000	68.386	169.2627
269.000000	68.372	169.4490
272.000000	68.360	169.5761
276.000000	68.346	169.7751
280.000000	68.330	169.9602
285.000000	68.311	170.1522
290.000000	68.293	170.3612
295.000000	68.277	170.5744
300.000000	68.268	170.7663
304.000000	68.258	170.9203
307.000000	68.246	171.0402
311.000000	68.231	171.2074
315.000000	68.217	171.3829
320.000000	68.202	171.5517
325.000000	68.185	171.6931
330.000000	68.169	171.8507
335.000000	68.155	172.0403
340.000000	68.141	172.1974
345.000000	68.125	172.3497
350.000000	68.106	172.5132
355.000000	68.091	172.6738
360.000000	68.077	172.8145
365.000000	68.065	172.9812
370.000000	68.049	173.1396
375.000000	68.033	173.2794
382.000000	68.009	173.4910
387.000000	67.995	173.6336
395.000000	67.970	173.8794
400.000000	67.955	174.0307
406.000000	67.932	174.2089
412.000000	67.916	174.3802
418.000000	67.901	174.5506
425.000000	67.878	174.7530
431.000000	67.859	174.9297
437.000000	67.841	175.1014
444.000000	67.821	175.3441
450.000000	67.801	175.5250
455.000000	67.786	175.6830
462.000000	67.764	175.8893
468.000000	67.749	176.0533
475.000000	67.726	176.2579
482.000000	67.705	176.4558
487.000000	67.690	176.6210
494.000000	67.671	176.8636
500.000000	67.654	177.0484
508.000000	67.629	177.2947
515.000000	67.609	177.4998
522.000000	67.590	177.7184
530.000000	67.565	177.9848
538.000000	67.546	178.2482
545.000000	67.527	178.4983
552.000000	67.508	178.7272
560.000000	67.488	178.9881
570.000000	67.462	179.3352
580.000000	67.435	179.6917
590.000000	67.412	-179.9388
600.000000	67.387	-179.5717
608.000000	67.368	-179.2706
615.000000	67.352	-178.9825
622.000000	67.335	-178.7165
630.000000	67.317	-178.4267
640.000000	67.295	-178.0300
650.000000	67.279	-177.6035
660.000000	67.260	-177.1894
670.000000	67.240	-176.7547
680.000000	67.223	-176.3157
690.000000	67.207	-175.8699
700.000000	67.192	-175.4286
710.000000	67.177	-174.9746
720.000000	67.172	-174.5125
730.000000	67.162	-174.0523
740.000000	67.156	-173.5722
750.000000	67.154	-173.0817
762.000000	67.155	-172.5071
775.000000	67.152	-171.8763
788.000000	67.157	-171.2191
800.000000	67.165	-170.6175
812.000000	67.180	-169.9863
825.000000	67.200	-169.3241
838.000000	67.217	-168.6712
850.000000	67.237	-168.0829
862.000000	67.264	-167.4763
875.000000	67.294	-166.7982
885.000000	67.321	-166.2868
900.000000	67.370	-165.5480
912.000000	67.408	-164.9687
925.000000	67.455	-164.3061
938.000000	67.503	-163.6813
950.000000	67.556	-163.0827
962.000000	67.615	-162.4992
975.000000	67.686	-161.8930
988.000000	67.760	-161.3169
1000.000000	67.831	-160.8191
1015.000000	67.931	-160.1773
1030.000000	68.033	-159.6072
1044.000000	68.131	-159.1509
1060.000000	68.255	-158.6915
1075.000000	68.367	-158.2818
1090.000000	68.479	-157.9393
1106.000000	68.601	-157.6383
1120.000000	68.707	-157.4185
1138.000000	68.840	-157.1783
1150.000000	68.929	-157.0461
1172.000000	69.083	-156.8928
1180.000000	69.139	-156.8427
1206.000000	69.314	-156.7339
1220.000000	69.407	-156.7253
1241.000000	69.539	-156.7398
1250.000000	69.595	-156.7442
1265.000000	69.687	-156.7800
1280.000000	69.774	-156.8205
1315.000000	69.975	-156.9817
1320.000000	70.003	-157.0128
1340.000000	70.113	-157.1488
1360.000000	70.218	-157.2814
1380.000000	70.323	-157.4376
1400.000000	70.425	-157.6091
1430.000000	70.576	-157.9061
1450.000000	70.674	-158.1202
1475.000000	70.795	-158.4151
1500.000000	70.916	-158.7511
1525.000000	71.035	-159.1197
1550.000000	71.151	-159.5206
1575.000000	71.271	-159.9632
1600.000000	71.382	-160.4434
1625.000000	71.490	-160.9677
1650.000000	71.598	-161.5296
1675.000000	71.705	-162.1524
1700.000000	71.801	-162.8336
1725.000000	71.893	-163.5594
1750.000000	71.981	-164.3207
1775.000000	72.062	-165.1505
1800.000000	72.134	-166.0231
1825.000000	72.198	-166.9359
1850.000000	72.254	-167.8837
1875.000000	72.297	-168.8781
1900.000000	72.330	-169.9044
1925.000000	72.351	-170.9487
1950.000000	72.357	-172.0017
1975.000000	72.349	-173.0508
2000.000000	72.330	-174.0907
2030.000000	72.290	-175.3273
2060.000000	72.231	-176.5298
2090.000000	72.153	-177.6832
2120.000000	72.062	-178.7489
2140.000000	71.992	-179.4174
2180.000000	71.831	179.3665
2200.000000	71.744	178.8382
2240.000000	71.560	177.9052
2270.000000	71.414	177.3318
2300.000000	71.261	176.8779
2330.000000	71.106	176.5373
2360.000000	70.950	176.3035
2400.000000	70.742	176.1827
2430.000000	70.593	176.2148
2470.000000	70.400	176.3957
2500.000000	70.263	176.6421
2540.000000	70.097	177.1124
2580.000000	69.947	177.7046
2620.000000	69.812	178.4257
2650.000000	69.726	179.0347
2690.000000	69.629	179.8969
2720.000000	69.570	-179.4037
2760.000000	69.514	-178.4149
2800.000000	69.484	-177.3916
2850.000000	69.482	-176.0889
2900.000000	69.525	-174.8128
2950.000000	69.614	-173.6414
3000.000000	69.748	-172.6040
3040.000000	69.881	-171.9427
3070.000000	69.996	-171.5737
3110.000000	70.166	-171.3019
3150.000000	70.346	-171.2947
3200.000000	70.563	-171.6710
3250.000000	70.747	-172.5013
3300.000000	70.873	-173.5893
3350.000000	70.933	-174.8171
3400.000000	70.928	-175.9404
3450.000000	70.877	-176.8142
3500.000000	70.802	-177.4065
3550.000000	70.721	-177.6946
3600.000000	70.653	-177.7431
3650.000000	70.602	-177.5897
3700.000000	70.575	-177.3147
3750.000000	70.573	-176.9669
3820.000000	70.612	-176.4462
3870.000000	70.672	-176.0944
3950.000000	70.813	-175.6533
4000.000000	70.930	-175.4966
4060.000000	71.093	-175.4550
4120.000000	71.281	-175.6378
4180.000000	71.485	-176.0663
4250.000000	71.739	-176.9357
4310.000000	71.958	-178.0412
4370.000000	72.169	-179.5044
4440.000000	72.387	178.3074
4500.000000	72.534	176.0404
4550.000000	72.618	173.9074
4620.000000	72.659	170.6816
4680.000000	72.614	167.7770
4750.000000	72.463	164.4020
4820.000000	72.211	161.2192
4870.000000	71.976	159.1657
4940.000000	71.586	156.6891
5000.000000	71.212	154.9818
5080.000000	70.677	153.2773
5150.000000	70.190	152.3105
5220.000000	69.699	151.7968
5300.000000	69.142	151.7451
5380.000000	68.602	152.2505
5450.000000	68.163	153.1172
5520.000000	67.770	154.2997
5600.000000	67.381	155.8073
5700.000000	66.944	157.7155
5800.000000	66.523	159.7139
5900.000000	66.130	162.0283
6000.000000	65.781	164.6127
6080.000000	65.532	166.8010
6150.000000	65.345	168.7967
6220.000000	65.179	170.8746
6300.000000	65.015	173.3057
6400.000000	64.854	176.4070
6500.000000	64.750	179.5811
6600.000000	64.692	-177.1996
6700.000000	64.681	-173.9715
6800.000000	64.722	-170.7633
6900.000000	64.812	-167.6001
7000.000000	64.959	-164.5220
7100.000000	65.164	-161.5490
7200.000000	65.438	-158.7039
7300.000000	65.764	-156.1491
7400.000000	66.144	-153.8815
7500.000000	66.577	-151.9432
7620.000000	67.168	-150.0288
7750.000000	67.923	-148.6183
7880.000000	68.812	-148.4282
8000.000000	69.704	-149.8148
8120.000000	70.592	-153.1626
8250.000000	71.402	-159.2708
8380.000000	71.871	-167.5867
8500.000000	71.873	-176.1391
8620.000000	71.453	175.9440
8750.000000	70.653	169.3246
8850.000000	69.912	165.8866
9000.000000	68.767	163.1434
9120.000000	67.910	162.5688
9250.000000	67.083	163.1724
9380.000000	66.381	164.6310
9500.000000	65.843	166.5096
9620.000000	65.412	168.7310
9750.000000	65.058	171.3811
9880.000000	64.824	174.1155
10000.000000	64.709	176.6449
10150.000000	64.697	179.6310
10300.000000	64.825	-177.7491
10440.000000	65.066	-175.8068
10600.000000	65.471	-174.5169
10750.000000	65.950	-174.5832
10900.000000	66.452	-176.2449
11060.000000	66.896	179.9734
11200.000000	67.089	175.2599
11380.000000	66.963	167.9085
11500.000000	66.582	162.9623
11720.000000	65.356	156.1834
11800.000000	64.809	154.7556
12060.000000	62.973	153.6759
12200.000000	62.031	154.8654
12410.000000	60.761	158.2827
12500.000000	60.274	160.2397
12650.000000	59.546	163.9326
12800.000000	58.923	168.0463
13150.000000	57.844	178.9268
13200.000000	57.734	-179.4452
13400.000000	57.407	-172.8828
13600.000000	57.262	-166.2969
13800.000000	57.289	-159.9300
14000.000000	57.498	-153.8220
14300.000000	58.151	-145.7909
14500.000000	58.854	-141.3775
14750.000000	60.032	-137.9838
15000.000000	61.460	-138.2339
15250.000000	62.878	-143.5402
15500.000000	63.748	-154.1041
15750.000000	63.668	-166.2567
16000.000000	62.861	-175.3179
16250.000000	61.882	179.7740
16500.000000	61.136	177.3078
16750.000000	60.698	174.8233
17000.000000	60.354	170.6619
17250.000000	59.828	164.7386
17500.000000	58.913	158.2181
17750.000000	57.571	152.8972
18000.000000	55.976	149.9073
18250.000000	54.303	149.0417
18500.000000	52.605	149.8041
18750.000000	50.891	151.9569
19000.000000	49.181	155.3578
19250.000000	47.532	159.7520
19500.000000	45.929	165.9213
19750.000000	44.460	172.1962
