* Measurement data measured by REW V5.20.13
* Source: C:\Users\marcu\OneDrive\Desktop\audio_db\Aur Audio Aurora Foam R.txt
* Format: Comma/Tab/Space delimited data
* Dated: Jun 27, 2023 1:43:39 PM
* REW Settings:
*  C-weighting compensation: Off
*  Target level: 75.0 dB
* Note: ; Measurement imported from C:\Users\marcu\OneDrive\Desktop\audio_db\Aur Audio Aurora Foam R.txt Format: Comma/Tab/Space delimited data 54613 values loaded, 0 Hz to 20,000 Hz 
* Measurement: Aur Audio Aurora Foam R
* Smoothing: None
* Frequency Step: 1/48 octave
* Start Frequency: 1.000 Hz
*
* Freq(Hz)	SPL(dB)	Phase(degrees)
1.000000	68.104	-71.9406
1.015000	67.950	-72.9117
1.030000	67.791	-73.8662
1.044000	67.636	-74.7410
1.060000	67.453	-75.7204
1.075000	67.274	-76.6173
1.090000	67.088	-77.4926
1.106000	66.882	-78.4163
1.120000	66.695	-79.2998
1.138000	66.446	-80.5452
1.150000	66.274	-81.4323
1.172000	65.949	-83.1479
1.180000	65.828	-83.7929
1.206000	65.422	-85.9311
1.220000	65.197	-87.0890
1.241000	64.851	-88.8015
1.250000	64.700	-89.5177
1.265000	64.445	-90.6759
1.280000	64.185	-91.7766
1.315000	63.565	-94.0382
1.320000	63.475	-94.3181
1.340000	63.111	-95.3076
1.360000	62.742	-96.0625
1.380000	62.370	-96.5474
1.400000	61.993	-96.7269
1.430000	61.423	-96.3462
1.450000	61.041	-95.6075
1.475000	60.553	-94.0592
1.500000	59.996	-91.6595
1.525000	59.368	-88.4777
1.550000	58.688	-84.6312
1.575000	57.974	-80.2372
1.600000	57.245	-75.4130
1.625000	56.517	-70.2760
1.650000	55.809	-64.9434
1.675000	55.139	-59.5324
1.700000	54.524	-54.1605
1.725000	53.983	-48.9449
1.750000	53.533	-44.0029
1.775000	53.193	-39.4517
1.800000	52.981	-35.4088
1.825000	52.913	-31.9913
1.850000	53.011	-29.1469
1.875000	53.277	-26.5271
1.900000	53.688	-24.1134
1.925000	54.226	-21.9032
1.950000	54.867	-19.8943
1.975000	55.591	-18.0841
2.000000	56.376	-16.4703
2.030000	57.369	-14.7894
2.060000	58.384	-13.3835
2.090000	59.382	-12.2484
2.120000	60.328	-11.3800
2.140000	60.911	-10.9471
2.180000	61.914	-10.4263
2.200000	62.313	-10.3370
2.240000	63.000	-10.7335
2.270000	63.460	-11.5432
2.300000	63.877	-12.7233
2.330000	64.257	-14.2119
2.360000	64.603	-15.9473
2.400000	65.023	-18.5380
2.430000	65.312	-20.6086
2.470000	65.672	-23.4218
2.500000	65.929	-25.4910
2.540000	66.265	-28.0779
2.580000	66.598	-30.3785
2.620000	66.903	-32.6754
2.650000	67.109	-34.4387
2.690000	67.359	-36.8293
2.720000	67.528	-38.6419
2.760000	67.735	-41.0701
2.800000	67.922	-43.4947
2.850000	68.135	-46.4924
2.900000	68.332	-49.4199
2.950000	68.517	-52.2530
3.000000	68.678	-55.0635
3.040000	68.788	-57.2990
3.070000	68.860	-58.9614
3.110000	68.944	-61.1509
3.150000	69.016	-63.3001
3.200000	69.091	-65.9144
3.250000	69.154	-68.4298
3.300000	69.206	-70.8270
3.350000	69.242	-73.1381
3.400000	69.258	-75.3839
3.450000	69.258	-77.5473
3.500000	69.246	-79.6116
3.550000	69.225	-81.5597
3.600000	69.198	-83.3748
3.650000	69.171	-85.0401
3.700000	69.139	-86.5496
3.750000	69.092	-87.9234
3.820000	69.011	-89.6262
3.870000	68.951	-90.6890
3.950000	68.865	-92.1319
4.000000	68.827	-92.8774
4.060000	68.803	-93.5984
4.120000	68.787	-94.0546
4.180000	68.779	-94.2987
4.250000	68.790	-94.4103
4.310000	68.822	-94.4390
4.370000	68.880	-94.4809
4.440000	68.989	-94.5645
4.500000	69.118	-94.5358
4.550000	69.245	-94.4729
4.620000	69.444	-94.3946
4.680000	69.628	-94.4003
4.750000	69.847	-94.5752
4.820000	70.077	-94.9588
4.870000	70.256	-95.3158
4.940000	70.518	-95.9203
5.000000	70.745	-96.5272
5.080000	71.037	-97.4499
5.150000	71.269	-98.3558
5.220000	71.492	-99.4049
5.300000	71.736	-100.7480
5.380000	71.963	-102.1741
5.450000	72.145	-103.4320
5.520000	72.305	-104.6592
5.600000	72.464	-106.1083
5.700000	72.632	-107.9531
5.800000	72.771	-109.7275
5.900000	72.885	-111.3330
6.000000	72.964	-112.8291
6.080000	73.010	-113.9404
6.150000	73.044	-114.8314
6.220000	73.077	-115.6305
6.300000	73.111	-116.4170
6.400000	73.142	-117.2323
6.500000	73.171	-117.9055
6.600000	73.214	-118.4839
6.700000	73.271	-118.9247
6.800000	73.337	-119.2436
6.900000	73.414	-119.5362
7.000000	73.505	-119.8819
7.100000	73.614	-120.2228
7.200000	73.733	-120.5823
7.300000	73.854	-121.0129
7.400000	73.973	-121.5499
7.500000	74.097	-122.1684
7.620000	74.240	-122.9919
7.750000	74.374	-123.9631
7.880000	74.490	-125.0478
8.000000	74.582	-126.0800
8.120000	74.655	-127.0789
8.250000	74.711	-128.1628
8.380000	74.753	-129.1983
8.500000	74.783	-130.0645
8.620000	74.802	-130.8616
8.750000	74.819	-131.6570
8.850000	74.835	-132.2191
9.000000	74.859	-132.9683
9.120000	74.883	-133.5369
9.250000	74.916	-134.1535
9.380000	74.956	-134.7516
9.500000	74.996	-135.3257
9.620000	75.040	-135.9438
9.750000	75.092	-136.6461
9.880000	75.133	-137.3816
10.000000	75.155	-138.0978
10.150000	75.167	-139.0326
10.300000	75.167	-139.9695
10.440000	75.154	-140.8512
10.600000	75.132	-141.8435
10.750000	75.109	-142.7342
10.900000	75.084	-143.5965
11.060000	75.059	-144.4822
11.200000	75.039	-145.2254
11.380000	75.017	-146.1643
11.500000	75.006	-146.7831
11.720000	74.989	-147.9100
11.800000	74.983	-148.3232
12.060000	74.968	-149.6666
12.200000	74.957	-150.3841
12.410000	74.942	-151.4473
12.500000	74.941	-151.8895
12.650000	74.948	-152.6109
12.800000	74.960	-153.3112
13.150000	74.991	-154.8547
13.200000	74.997	-155.0694
13.400000	75.020	-155.9120
13.600000	75.044	-156.7465
13.800000	75.068	-157.5810
14.000000	75.088	-158.4090
14.300000	75.110	-159.6297
14.500000	75.118	-160.4068
14.750000	75.124	-161.3200
15.000000	75.125	-162.1642
15.250000	75.127	-162.9511
15.500000	75.132	-163.7127
15.750000	75.138	-164.4675
16.000000	75.145	-165.2400
16.250000	75.151	-166.0240
16.500000	75.154	-166.8110
16.750000	75.150	-167.5829
17.000000	75.141	-168.3282
17.250000	75.130	-169.0498
17.500000	75.119	-169.7542
17.750000	75.109	-170.4612
18.000000	75.099	-171.1764
18.250000	75.088	-171.9056
18.500000	75.075	-172.6393
18.750000	75.059	-173.3692
19.000000	75.044	-174.0880
19.250000	75.030	-174.7943
19.500000	75.018	-175.4964
19.750000	75.010	-176.2003
20.000000	75.003	-176.9156
20.299999	74.995	-177.7829
20.600000	74.987	-178.6469
20.900000	74.977	-179.4877
21.200001	74.965	179.7120
21.400000	74.959	179.2020
21.799999	74.949	178.2267
22.000000	74.947	177.7544
22.400000	74.944	176.8275
22.700001	74.941	176.1478
23.000000	74.937	175.4849
23.299999	74.932	174.8395
23.600000	74.927	174.2072
24.000000	74.916	173.3766
24.299999	74.904	172.7624
24.700001	74.883	171.9651
25.000000	74.864	171.3913
25.400000	74.838	170.6567
25.799999	74.813	169.9326
26.200001	74.790	169.1880
26.500000	74.772	168.6090
26.900000	74.743	167.8188
27.200001	74.719	167.2253
27.600000	74.686	166.4440
28.000000	74.653	165.6738
28.500000	74.613	164.7164
29.000000	74.575	163.7665
29.500000	74.538	162.8383
30.000000	74.504	161.9421
30.400000	74.478	161.2509
30.700001	74.459	160.7486
31.100000	74.436	160.0997
31.500000	74.416	159.4682
32.000000	74.393	158.6844
32.500000	74.368	157.8942
33.000000	74.338	157.1072
33.500000	74.303	156.3406
34.000000	74.265	155.6000
34.500000	74.226	154.8817
35.000000	74.185	154.1830
35.500000	74.146	153.4947
36.000000	74.107	152.8001
36.500000	74.069	152.0928
37.000000	74.029	151.3909
37.500000	73.987	150.7162
38.200001	73.938	149.8057
38.700001	73.909	149.1404
39.500000	73.858	148.0152
40.000000	73.818	147.3167
40.599998	73.762	146.5530
41.200001	73.713	145.8870
41.799999	73.676	145.2448
42.500000	73.639	144.4222
43.099998	73.599	143.6768
43.700001	73.550	142.9659
44.400002	73.495	142.1882
45.000000	73.450	141.5332
45.500000	73.413	140.9942
46.200001	73.363	140.2599
46.799999	73.324	139.6322
47.500000	73.278	138.8749
48.200001	73.229	138.1087
48.700001	73.190	137.5790
49.400002	73.139	136.8692
50.000000	73.096	136.2707
50.799999	73.040	135.4782
51.500000	72.991	134.8131
52.200001	72.946	134.1668
53.000000	72.897	133.4166
53.799999	72.846	132.6566
54.500000	72.798	132.0018
55.200001	72.745	131.3828
56.000000	72.690	130.7148
57.000000	72.626	129.8367
58.000000	72.551	128.9605
59.000000	72.483	128.1581
60.000000	72.423	127.3137
60.799999	72.371	126.6268
61.500000	72.326	126.0485
62.200001	72.283	125.4879
63.000000	72.231	124.8635
64.000000	72.169	124.1014
65.000000	72.104	123.3470
66.000000	72.038	122.6048
67.000000	71.971	121.8691
68.000000	71.905	121.1466
69.000000	71.841	120.4507
70.000000	71.782	119.7473
71.000000	71.720	119.0339
72.000000	71.657	118.3569
73.000000	71.595	117.6891
74.000000	71.532	117.0358
75.000000	71.471	116.4033
76.199997	71.400	115.6399
77.500000	71.324	114.8217
78.800003	71.252	114.0262
80.000000	71.186	113.2772
81.199997	71.117	112.5531
82.500000	71.043	111.8113
83.800003	70.976	111.0844
85.000000	70.912	110.3762
86.199997	70.844	109.7383
87.500000	70.781	109.0418
88.500000	70.730	108.4834
90.000000	70.652	107.6920
91.199997	70.592	107.0542
92.500000	70.525	106.3766
93.800003	70.463	105.7325
95.000000	70.407	105.1387
96.199997	70.351	104.5555
97.500000	70.291	103.9219
98.800003	70.229	103.2977
100.000000	70.173	102.7348
101.500000	70.104	102.0355
103.000000	70.038	101.3649
104.400002	69.981	100.7345
106.000000	69.912	100.0277
107.500000	69.849	99.3929
109.000000	69.786	98.7716
110.599998	69.722	98.1140
112.000000	69.665	97.5318
113.800003	69.594	96.7903
115.000000	69.546	96.3125
117.199997	69.467	95.4456
118.000000	69.436	95.1330
120.599998	69.341	94.1617
122.000000	69.292	93.6490
124.099998	69.222	92.8656
125.000000	69.193	92.5350
126.500000	69.147	91.9952
128.000000	69.103	91.4650
131.500000	69.000	90.2883
132.000000	68.985	90.1296
134.000000	68.933	89.4914
136.000000	68.879	88.8412
138.000000	68.822	88.1901
140.000000	68.768	87.5622
143.000000	68.694	86.6472
145.000000	68.650	86.0388
147.500000	68.597	85.3032
150.000000	68.539	84.5800
152.500000	68.486	83.8868
155.000000	68.432	83.2040
157.500000	68.380	82.5422
160.000000	68.329	81.8807
162.500000	68.267	81.2456
165.000000	68.207	80.6151
167.500000	68.146	79.9934
170.000000	68.092	79.3889
172.500000	68.038	78.7772
175.000000	67.985	78.2099
177.500000	67.935	77.6566
180.000000	67.884	77.0995
182.500000	67.832	76.5699
185.000000	67.785	76.0389
187.500000	67.740	75.4976
190.000000	67.696	74.9695
192.500000	67.654	74.4600
195.000000	67.613	73.9714
197.500000	67.571	73.4891
200.000000	67.532	73.0156
203.000000	67.490	72.4512
206.000000	67.450	71.8954
209.000000	67.410	71.3643
212.000000	67.375	70.8695
214.000000	67.354	70.5308
218.000000	67.308	69.8620
220.000000	67.287	69.5356
224.000000	67.249	68.9108
227.000000	67.222	68.4452
230.000000	67.193	67.9908
233.000000	67.166	67.5475
236.000000	67.141	67.1168
240.000000	67.110	66.5585
243.000000	67.085	66.1501
247.000000	67.058	65.6143
250.000000	67.036	65.2210
254.000000	67.011	64.7354
258.000000	66.986	64.2580
262.000000	66.966	63.7628
265.000000	66.952	63.4216
269.000000	66.932	62.9700
272.000000	66.921	62.6231
276.000000	66.905	62.2186
280.000000	66.891	61.8139
285.000000	66.872	61.2818
290.000000	66.857	60.7906
295.000000	66.848	60.3218
300.000000	66.836	59.8652
304.000000	66.828	59.5177
307.000000	66.823	59.2712
311.000000	66.819	58.9377
315.000000	66.817	58.6008
320.000000	66.810	58.2040
325.000000	66.808	57.8273
330.000000	66.809	57.4405
335.000000	66.808	57.0738
340.000000	66.808	56.7260
345.000000	66.810	56.3946
350.000000	66.814	56.0602
355.000000	66.818	55.7342
360.000000	66.825	55.4362
365.000000	66.833	55.1322
370.000000	66.839	54.8253
375.000000	66.847	54.5249
382.000000	66.864	54.1140
387.000000	66.875	53.8318
395.000000	66.900	53.4119
400.000000	66.913	53.1464
406.000000	66.930	52.8198
412.000000	66.950	52.5112
418.000000	66.972	52.2128
425.000000	66.993	51.8617
431.000000	67.017	51.5749
437.000000	67.039	51.2929
444.000000	67.063	50.9586
450.000000	67.087	50.6764
455.000000	67.109	50.4434
462.000000	67.139	50.1187
468.000000	67.165	49.8505
475.000000	67.194	49.5293
482.000000	67.220	49.2125
487.000000	67.243	49.0007
494.000000	67.274	48.6891
500.000000	67.301	48.4163
508.000000	67.336	48.0527
515.000000	67.369	47.7498
522.000000	67.402	47.4466
530.000000	67.441	47.0710
538.000000	67.475	46.6936
545.000000	67.504	46.3500
552.000000	67.531	45.9973
560.000000	67.554	45.6007
570.000000	67.585	45.1784
580.000000	67.613	44.7627
590.000000	67.644	44.3414
600.000000	67.674	43.9595
608.000000	67.695	43.6202
615.000000	67.712	43.3262
622.000000	67.728	43.0376
630.000000	67.743	42.7183
640.000000	67.759	42.3360
650.000000	67.774	41.9570
660.000000	67.785	41.6241
670.000000	67.795	41.2837
680.000000	67.802	40.9757
690.000000	67.805	40.6942
700.000000	67.805	40.4291
710.000000	67.803	40.1767
720.000000	67.800	39.9908
730.000000	67.795	39.8049
740.000000	67.789	39.6611
750.000000	67.781	39.5560
762.000000	67.771	39.4458
775.000000	67.761	39.3869
788.000000	67.753	39.4078
800.000000	67.748	39.4625
812.000000	67.737	39.5357
825.000000	67.728	39.6738
838.000000	67.725	39.8409
850.000000	67.725	40.0460
862.000000	67.730	40.2532
875.000000	67.740	40.5208
885.000000	67.754	40.7501
900.000000	67.781	41.0860
912.000000	67.806	41.3709
925.000000	67.843	41.6740
938.000000	67.884	41.9894
950.000000	67.927	42.2610
962.000000	67.975	42.5342
975.000000	68.031	42.8114
988.000000	68.092	43.0862
1000.000000	68.160	43.3196
1015.000000	68.255	43.5657
1030.000000	68.356	43.7938
1044.000000	68.453	43.9715
1060.000000	68.567	44.1387
1075.000000	68.675	44.2574
1090.000000	68.785	44.3256
1106.000000	68.901	44.3736
1120.000000	69.002	44.3781
1138.000000	69.129	44.3556
1150.000000	69.211	44.3212
1172.000000	69.360	44.2118
1180.000000	69.413	44.1615
1206.000000	69.577	43.9579
1220.000000	69.663	43.8360
1241.000000	69.786	43.6414
1250.000000	69.832	43.5535
1265.000000	69.895	43.4030
1280.000000	69.951	43.2404
1315.000000	70.069	42.8653
1320.000000	70.086	42.8130
1340.000000	70.150	42.6164
1360.000000	70.212	42.4354
1380.000000	70.272	42.2392
1400.000000	70.333	42.0551
1430.000000	70.419	41.7946
1450.000000	70.478	41.6244
1475.000000	70.554	41.4030
1500.000000	70.628	41.2094
1525.000000	70.699	41.0106
1550.000000	70.774	40.8148
1575.000000	70.850	40.6031
1600.000000	70.933	40.3815
1625.000000	71.042	40.1658
1650.000000	71.156	39.9390
1675.000000	71.271	39.6967
1700.000000	71.387	39.4397
1725.000000	71.507	39.1688
1750.000000	71.623	38.8715
1775.000000	71.741	38.5681
1800.000000	71.855	38.2382
1825.000000	71.970	37.8909
1850.000000	72.086	37.5153
1875.000000	72.201	37.1151
1900.000000	72.313	36.6939
1925.000000	72.424	36.2461
1950.000000	72.532	35.7776
1975.000000	72.638	35.2839
2000.000000	72.741	34.7640
2030.000000	72.857	34.1172
2060.000000	72.968	33.4351
2090.000000	73.074	32.7245
2120.000000	73.173	31.9756
2140.000000	73.238	31.4686
2180.000000	73.360	30.4202
2200.000000	73.416	29.8740
2240.000000	73.523	28.7659
2270.000000	73.595	27.9216
2300.000000	73.660	27.0653
2330.000000	73.720	26.1974
2360.000000	73.774	25.3248
2400.000000	73.834	24.1605
2430.000000	73.874	23.2902
2470.000000	73.919	22.1396
2500.000000	73.945	21.2806
2540.000000	73.973	20.1558
2580.000000	73.992	19.0575
2620.000000	74.002	17.9717
2650.000000	74.004	17.1892
2690.000000	74.004	16.1749
2720.000000	74.001	15.4362
2760.000000	73.995	14.4648
2800.000000	73.983	13.5322
2850.000000	73.964	12.4110
2900.000000	73.943	11.3347
2950.000000	73.920	10.2917
3000.000000	73.900	9.2841
3040.000000	73.883	8.4952
3070.000000	73.870	7.9214
3110.000000	73.852	7.1543
3150.000000	73.837	6.3930
3200.000000	73.818	5.4222
3250.000000	73.799	4.4497
3300.000000	73.780	3.4510
3350.000000	73.757	2.4189
3400.000000	73.732	1.3403
3450.000000	73.701	0.2285
3500.000000	73.661	-0.9187
3550.000000	73.607	-2.0911
3600.000000	73.539	-3.2688
3650.000000	73.455	-4.4203
3700.000000	73.358	-5.5132
3750.000000	73.245	-6.5216
3820.000000	73.077	-7.7477
3870.000000	72.957	-8.5018
3950.000000	72.774	-9.5608
4000.000000	72.665	-10.1826
4060.000000	72.538	-10.9225
4120.000000	72.412	-11.6843
4180.000000	72.278	-12.4727
4250.000000	72.108	-13.4135
4310.000000	71.947	-14.1732
4370.000000	71.772	-14.8732
4440.000000	71.555	-15.6127
4500.000000	71.357	-16.1204
4550.000000	71.187	-16.4408
4620.000000	70.943	-16.7385
4680.000000	70.728	-16.8448
4750.000000	70.483	-16.7936
4820.000000	70.243	-16.5455
4870.000000	70.081	-16.2535
4940.000000	69.866	-15.6833
5000.000000	69.691	-15.0698
5080.000000	69.468	-14.0640
5150.000000	69.302	-13.0687
5220.000000	69.166	-11.9888
5300.000000	69.058	-10.6789
5380.000000	69.005	-9.3845
5450.000000	69.005	-8.3403
5520.000000	69.051	-7.4684
5600.000000	69.157	-6.7905
5700.000000	69.349	-6.7139
5800.000000	69.556	-7.8344
5900.000000	69.681	-10.3504
6000.000000	69.590	-13.9503
6080.000000	69.299	-17.0204
6150.000000	68.885	-19.3129
6220.000000	68.359	-20.8907
6300.000000	67.692	-21.5847
6400.000000	66.902	-20.8149
6500.000000	66.216	-18.5511
6600.000000	65.664	-15.2966
6700.000000	65.262	-11.4686
6800.000000	64.998	-7.4033
6900.000000	64.860	-3.2872
7000.000000	64.829	0.7506
7100.000000	64.898	4.6245
7200.000000	65.064	8.1371
7300.000000	65.300	11.2821
7400.000000	65.582	14.0179
7500.000000	65.920	16.3762
7620.000000	66.386	18.5460
7750.000000	66.935	19.9744
7880.000000	67.498	20.3364
8000.000000	67.966	19.7247
8120.000000	68.291	18.2484
8250.000000	68.503	15.8317
8380.000000	68.557	12.8755
8500.000000	68.449	10.0546
8620.000000	68.172	7.6593
8750.000000	67.787	6.7268
8850.000000	67.700	6.4007
9000.000000	67.454	3.7775
9120.000000	67.037	2.4618
9250.000000	66.574	2.1564
9380.000000	66.160	2.6284
9500.000000	65.841	3.5153
9620.000000	65.595	4.7091
9750.000000	65.420	6.1778
9880.000000	65.340	7.6620
10000.000000	65.361	8.8955
10150.000000	65.545	10.0193
10300.000000	65.852	10.4500
10440.000000	66.208	9.9404
10600.000000	66.638	7.9808
10750.000000	66.982	4.6196
10900.000000	67.167	-0.1535
11060.000000	67.079	-6.2032
11200.000000	66.733	-11.5172
11380.000000	65.954	-17.3776
11500.000000	65.274	-20.3365
11720.000000	63.766	-23.4805
11800.000000	63.142	-23.5839
12060.000000	61.224	-18.5322
12200.000000	60.597	-13.6516
12410.000000	60.178	-7.0482
12500.000000	60.096	-4.7196
12650.000000	60.010	-1.4257
12800.000000	59.985	1.2755
13150.000000	60.141	5.2103
13200.000000	60.184	5.4546
13400.000000	60.369	5.4167
13600.000000	60.509	3.6306
13800.000000	60.466	0.1163
14000.000000	60.124	-4.4016
14300.000000	58.986	-10.7111
14500.000000	57.925	-13.2807
14750.000000	56.468	-13.9833
15000.000000	55.049	-12.2350
15250.000000	53.794	-8.6174
15500.000000	52.764	-3.6270
15750.000000	51.964	2.2698
16000.000000	51.505	8.6861
16250.000000	51.567	15.4799
16500.000000	52.023	22.2133
16750.000000	52.891	28.2760
17000.000000	54.129	32.0656
17250.000000	55.489	32.8542
17500.000000	56.846	30.9380
17750.000000	58.117	25.8810
18000.000000	59.005	17.4167
18250.000000	59.242	7.6379
18500.000000	58.959	-0.6229
18750.000000	58.491	-6.7155
19000.000000	58.052	-11.7695
19250.000000	57.652	-17.6171
19500.000000	57.034	-25.3831
19750.000000	55.915	-33.7579
