* Measurement data measured by REW V5.20.13
* Source: C:\Users\marcu\OneDrive\Desktop\audio_db\Elysian Diva - 250m - Blue Foam L.txt
* Format: Comma/Tab/Space delimited data
* Dated: May 29, 2023 8:27:35 AM
* REW Settings:
*  C-weighting compensation: Off
*  Target level: 75.0 dB
* Note: ; Measurement imported from C:\Users\marcu\OneDrive\Desktop\audio_db\Elysian Diva - 250m - Blue Foam L.txt Format: Comma/Tab/Space delimited data 54607 values loaded, 2 Hz to 20,000 Hz 
* Measurement: Llysian Diva - 250m - Blue Foa
* Smoothing: None
* Frequency Step: 1/48 octave
* Start Frequency: 2.200 Hz
*
* Freq(Hz)	SPL(dB)
2.200000	62.559
2.240000	62.884
2.270000	63.127
2.300000	63.371
2.330000	63.615
2.360000	63.858
2.400000	64.183
2.430000	64.426
2.470000	64.751
2.500000	64.995
2.540000	65.319
2.580000	65.616
2.620000	65.858
2.650000	66.028
2.690000	66.241
2.720000	66.391
2.760000	66.581
2.800000	66.762
2.850000	66.979
2.900000	67.189
2.950000	67.398
3.000000	67.595
3.040000	67.744
3.070000	67.851
3.110000	67.988
3.150000	68.122
3.200000	68.283
3.250000	68.441
3.300000	68.599
3.350000	68.753
3.400000	68.902
3.450000	69.046
3.500000	69.187
3.550000	69.324
3.600000	69.459
3.650000	69.592
3.700000	69.724
3.750000	69.853
3.820000	70.030
3.870000	70.153
3.950000	70.345
4.000000	70.461
4.060000	70.597
4.120000	70.730
4.180000	70.859
4.250000	71.005
4.310000	71.125
4.370000	71.241
4.440000	71.370
4.500000	71.476
4.550000	71.561
4.620000	71.675
4.680000	71.768
4.750000	71.872
4.820000	71.970
4.870000	72.036
4.940000	72.124
5.000000	72.196
5.080000	72.287
5.150000	72.364
5.220000	72.436
5.300000	72.513
5.380000	72.587
5.450000	72.650
5.520000	72.712
5.600000	72.780
5.700000	72.862
5.800000	72.942
5.900000	73.023
6.000000	73.103
6.080000	73.167
6.150000	73.223
6.220000	73.280
6.300000	73.344
6.400000	73.425
6.500000	73.506
6.600000	73.586
6.700000	73.665
6.800000	73.744
6.900000	73.822
7.000000	73.897
7.100000	73.971
7.200000	74.043
7.300000	74.113
7.400000	74.181
7.500000	74.247
7.620000	74.325
7.750000	74.406
7.880000	74.485
8.000000	74.556
8.120000	74.628
8.250000	74.705
8.380000	74.782
8.500000	74.853
8.620000	74.924
8.750000	75.001
8.850000	75.060
9.000000	75.148
9.120000	75.218
9.250000	75.292
9.380000	75.365
9.500000	75.430
9.620000	75.493
9.750000	75.561
9.880000	75.618
10.000000	75.657
10.150000	75.691
10.300000	75.718
10.440000	75.735
10.600000	75.750
10.750000	75.764
10.900000	75.775
11.060000	75.786
11.200000	75.794
11.380000	75.802
11.500000	75.806
11.720000	75.810
11.800000	75.810
12.060000	75.807
12.200000	75.803
12.410000	75.795
12.500000	75.796
12.650000	75.806
12.800000	75.818
13.150000	75.842
13.200000	75.845
13.400000	75.856
13.600000	75.866
13.800000	75.875
14.000000	75.882
14.300000	75.892
14.500000	75.898
14.750000	75.905
15.000000	75.913
15.250000	75.919
15.500000	75.927
15.750000	75.935
16.000000	75.946
16.250000	75.961
16.500000	75.981
16.750000	76.000
17.000000	76.020
17.250000	76.040
17.500000	76.059
17.750000	76.078
18.000000	76.095
18.250000	76.110
18.500000	76.124
18.750000	76.136
19.000000	76.147
19.250000	76.156
19.500000	76.162
19.750000	76.167
20.000000	76.170
20.299999	76.172
20.600000	76.171
20.900000	76.168
21.200001	76.162
21.400000	76.157
21.799999	76.143
22.000000	76.135
22.400000	76.117
22.700001	76.103
23.000000	76.089
23.299999	76.076
23.600000	76.063
24.000000	76.045
24.299999	76.031
24.700001	76.014
25.000000	76.001
25.400000	75.985
25.799999	75.970
26.200001	75.955
26.500000	75.942
26.900000	75.924
27.200001	75.909
27.600000	75.885
28.000000	75.859
28.500000	75.826
29.000000	75.789
29.500000	75.748
30.000000	75.704
30.400000	75.667
30.700001	75.639
31.100000	75.601
31.500000	75.561
32.000000	75.512
32.500000	75.463
33.000000	75.414
33.500000	75.367
34.000000	75.319
34.500000	75.271
35.000000	75.222
35.500000	75.174
36.000000	75.125
36.500000	75.075
37.000000	75.021
37.500000	74.966
38.200001	74.889
38.700001	74.833
39.500000	74.743
40.000000	74.685
40.599998	74.617
41.200001	74.550
41.799999	74.483
42.500000	74.406
43.099998	74.339
43.700001	74.271
44.400002	74.193
45.000000	74.125
45.500000	74.068
46.200001	73.987
46.799999	73.919
47.500000	73.838
48.200001	73.758
48.700001	73.701
49.400002	73.620
50.000000	73.553
50.799999	73.464
51.500000	73.386
52.200001	73.308
53.000000	73.218
53.799999	73.129
54.500000	73.051
55.200001	72.974
56.000000	72.886
57.000000	72.779
58.000000	72.672
59.000000	72.568
60.000000	72.462
60.799999	72.376
61.500000	72.302
62.200001	72.230
63.000000	72.147
64.000000	72.044
65.000000	71.942
66.000000	71.841
67.000000	71.743
68.000000	71.644
69.000000	71.545
70.000000	71.448
71.000000	71.352
72.000000	71.258
73.000000	71.167
74.000000	71.076
75.000000	70.985
76.199997	70.879
77.500000	70.766
78.800003	70.655
80.000000	70.554
81.199997	70.454
82.500000	70.351
83.800003	70.250
85.000000	70.158
86.199997	70.067
87.500000	69.972
88.500000	69.899
90.000000	69.792
91.199997	69.709
92.500000	69.621
93.800003	69.534
95.000000	69.455
96.199997	69.380
97.500000	69.300
98.800003	69.218
100.000000	69.146
101.500000	69.058
103.000000	68.972
104.400002	68.893
106.000000	68.807
107.500000	68.728
109.000000	68.651
110.599998	68.570
112.000000	68.501
113.800003	68.414
115.000000	68.360
117.199997	68.262
118.000000	68.228
120.599998	68.116
122.000000	68.058
124.099998	67.974
125.000000	67.939
126.500000	67.884
128.000000	67.833
131.500000	67.717
132.000000	67.701
134.000000	67.638
136.000000	67.578
138.000000	67.521
140.000000	67.465
143.000000	67.380
145.000000	67.329
147.500000	67.264
150.000000	67.202
152.500000	67.143
155.000000	67.087
157.500000	67.032
160.000000	66.977
162.500000	66.915
165.000000	66.853
167.500000	66.794
170.000000	66.735
172.500000	66.680
175.000000	66.625
177.500000	66.572
180.000000	66.522
182.500000	66.474
185.000000	66.427
187.500000	66.381
190.000000	66.338
192.500000	66.294
195.000000	66.251
197.500000	66.209
200.000000	66.171
203.000000	66.131
206.000000	66.094
209.000000	66.059
212.000000	66.025
214.000000	66.003
218.000000	65.957
220.000000	65.937
224.000000	65.898
227.000000	65.870
230.000000	65.843
233.000000	65.816
236.000000	65.791
240.000000	65.758
243.000000	65.734
247.000000	65.705
250.000000	65.684
254.000000	65.659
258.000000	65.635
262.000000	65.612
265.000000	65.596
269.000000	65.576
272.000000	65.562
276.000000	65.542
280.000000	65.524
285.000000	65.504
290.000000	65.484
295.000000	65.467
300.000000	65.452
304.000000	65.438
307.000000	65.428
311.000000	65.417
315.000000	65.405
320.000000	65.392
325.000000	65.380
330.000000	65.368
335.000000	65.358
340.000000	65.348
345.000000	65.338
350.000000	65.329
355.000000	65.321
360.000000	65.313
365.000000	65.308
370.000000	65.302
375.000000	65.297
382.000000	65.292
387.000000	65.287
395.000000	65.282
400.000000	65.280
406.000000	65.278
412.000000	65.276
418.000000	65.274
425.000000	65.274
431.000000	65.274
437.000000	65.273
444.000000	65.272
450.000000	65.273
455.000000	65.274
462.000000	65.275
468.000000	65.277
475.000000	65.281
482.000000	65.284
487.000000	65.286
494.000000	65.291
500.000000	65.296
508.000000	65.304
515.000000	65.311
522.000000	65.319
530.000000	65.329
538.000000	65.340
545.000000	65.350
552.000000	65.360
560.000000	65.373
570.000000	65.390
580.000000	65.408
590.000000	65.426
600.000000	65.445
608.000000	65.462
615.000000	65.478
622.000000	65.495
630.000000	65.513
640.000000	65.540
650.000000	65.567
660.000000	65.595
670.000000	65.628
680.000000	65.660
690.000000	65.693
700.000000	65.730
710.000000	65.766
720.000000	65.804
730.000000	65.844
740.000000	65.886
750.000000	65.931
762.000000	65.988
775.000000	66.052
788.000000	66.119
800.000000	66.181
812.000000	66.242
825.000000	66.311
838.000000	66.384
850.000000	66.458
862.000000	66.535
875.000000	66.622
885.000000	66.693
900.000000	66.804
912.000000	66.897
925.000000	67.003
938.000000	67.111
950.000000	67.214
962.000000	67.321
975.000000	67.439
988.000000	67.561
1000.000000	67.678
1015.000000	67.835
1030.000000	67.996
1044.000000	68.147
1060.000000	68.318
1075.000000	68.478
1090.000000	68.635
1106.000000	68.799
1120.000000	68.941
1138.000000	69.118
1150.000000	69.233
1172.000000	69.437
1180.000000	69.508
1206.000000	69.732
1220.000000	69.846
1241.000000	70.008
1250.000000	70.071
1265.000000	70.162
1280.000000	70.242
1315.000000	70.414
1320.000000	70.436
1340.000000	70.525
1360.000000	70.609
1380.000000	70.689
1400.000000	70.767
1430.000000	70.875
1450.000000	70.944
1475.000000	71.026
1500.000000	71.106
1525.000000	71.182
1550.000000	71.256
1575.000000	71.330
1600.000000	71.410
1625.000000	71.509
1650.000000	71.614
1675.000000	71.719
1700.000000	71.821
1725.000000	71.923
1750.000000	72.024
1775.000000	72.124
1800.000000	72.223
1825.000000	72.321
1850.000000	72.420
1875.000000	72.517
1900.000000	72.614
1925.000000	72.711
1950.000000	72.809
1975.000000	72.905
2000.000000	73.001
2030.000000	73.111
2060.000000	73.221
2090.000000	73.331
2120.000000	73.442
2140.000000	73.518
2180.000000	73.671
2200.000000	73.749
2240.000000	73.908
2270.000000	74.029
2300.000000	74.152
2330.000000	74.276
2360.000000	74.401
2400.000000	74.566
2430.000000	74.687
2470.000000	74.840
2500.000000	74.945
2540.000000	75.067
2580.000000	75.163
2620.000000	75.230
2650.000000	75.261
2690.000000	75.274
2720.000000	75.265
2760.000000	75.231
2800.000000	75.179
2850.000000	75.096
2900.000000	75.002
2950.000000	74.907
3000.000000	74.814
3040.000000	74.746
3070.000000	74.699
3110.000000	74.641
3150.000000	74.588
3200.000000	74.529
3250.000000	74.478
3300.000000	74.432
3350.000000	74.388
3400.000000	74.346
3450.000000	74.303
3500.000000	74.264
3550.000000	74.229
3600.000000	74.208
3650.000000	74.206
3700.000000	74.228
3750.000000	74.277
3820.000000	74.388
3870.000000	74.492
3950.000000	74.689
4000.000000	74.822
4060.000000	74.979
4120.000000	75.126
4180.000000	75.258
4250.000000	75.379
4310.000000	75.446
4370.000000	75.472
4440.000000	75.442
4500.000000	75.359
4550.000000	75.249
4620.000000	75.037
4680.000000	74.802
4750.000000	74.476
4820.000000	74.105
4870.000000	73.820
4940.000000	73.403
5000.000000	73.033
5080.000000	72.527
5150.000000	72.089
5220.000000	71.667
5300.000000	71.210
5380.000000	70.785
5450.000000	70.443
5520.000000	70.131
5600.000000	69.811
5700.000000	69.466
5800.000000	69.181
5900.000000	68.951
6000.000000	68.777
6080.000000	68.671
6150.000000	68.586
6220.000000	68.523
6300.000000	68.497
6400.000000	68.540
6500.000000	68.621
6600.000000	68.719
6700.000000	68.827
6800.000000	68.940
6900.000000	69.050
7000.000000	69.153
7100.000000	69.250
7200.000000	69.339
7300.000000	69.411
7400.000000	69.457
7500.000000	69.474
7620.000000	69.456
7750.000000	69.390
7880.000000	69.279
8000.000000	69.116
8120.000000	68.855
8250.000000	68.523
8380.000000	68.175
8500.000000	67.851
8620.000000	67.536
8750.000000	67.213
8850.000000	66.982
9000.000000	66.669
9120.000000	66.451
9250.000000	66.255
9380.000000	66.109
9500.000000	66.023
9620.000000	65.984
9750.000000	66.000
9880.000000	66.066
10000.000000	66.161
10150.000000	66.272
10300.000000	66.227
10440.000000	66.011
10600.000000	65.849
10750.000000	66.116
10900.000000	66.776
11060.000000	67.702
11200.000000	68.560
11380.000000	69.565
11500.000000	70.077
11720.000000	70.486
11800.000000	70.441
12060.000000	69.695
12200.000000	69.052
12410.000000	68.022
12500.000000	67.599
12650.000000	66.950
12800.000000	66.410
13150.000000	65.569
13200.000000	65.479
13400.000000	65.102
13600.000000	64.605
13800.000000	63.961
14000.000000	63.228
14300.000000	62.081
14500.000000	61.314
14750.000000	60.334
15000.000000	59.246
15250.000000	57.881
15500.000000	56.091
15750.000000	54.206
16000.000000	53.307
16250.000000	54.371
16500.000000	54.630
16750.000000	52.820
17000.000000	56.781
17250.000000	61.296
17500.000000	63.174
17750.000000	61.303
18000.000000	57.979
18250.000000	54.993
18500.000000	52.329
18750.000000	49.569
19000.000000	46.375
19250.000000	42.596
19500.000000	38.319
19750.000000	33.862
