* Measurement data measured by REW V5.20.13
* Source: C:\Users\marcu\OneDrive\Desktop\audio_db\Elysian Diva - 250m - Blue Foam R.txt
* Format: Comma/Tab/Space delimited data
* Dated: May 29, 2023 8:27:35 AM
* REW Settings:
*  C-weighting compensation: Off
*  Target level: 75.0 dB
* Note: ; Measurement imported from C:\Users\marcu\OneDrive\Desktop\audio_db\Elysian Diva - 250m - Blue Foam R.txt Format: Comma/Tab/Space delimited data 54607 values loaded, 2 Hz to 20,000 Hz 
* Measurement: Rlysian Diva - 250m - Blue Foa
* Smoothing: None
* Frequency Step: 1/48 octave
* Start Frequency: 2.200 Hz
*
* Freq(Hz)	SPL(dB)
2.200000	65.744
2.240000	66.127
2.270000	66.415
2.300000	66.702
2.330000	66.989
2.360000	67.277
2.400000	67.660
2.430000	67.947
2.470000	68.331
2.500000	68.618
2.540000	69.001
2.580000	69.349
2.620000	69.632
2.650000	69.830
2.690000	70.077
2.720000	70.252
2.760000	70.470
2.800000	70.674
2.850000	70.912
2.900000	71.135
2.950000	71.344
3.000000	71.532
3.040000	71.667
3.070000	71.760
3.110000	71.874
3.150000	71.978
3.200000	72.095
3.250000	72.201
3.300000	72.298
3.350000	72.380
3.400000	72.446
3.450000	72.499
3.500000	72.540
3.550000	72.573
3.600000	72.601
3.650000	72.626
3.700000	72.647
3.750000	72.656
3.820000	72.656
3.870000	72.651
3.950000	72.647
4.000000	72.651
4.060000	72.667
4.120000	72.684
4.180000	72.704
4.250000	72.736
4.310000	72.775
4.370000	72.829
4.440000	72.917
4.500000	73.009
4.550000	73.097
4.620000	73.233
4.680000	73.359
4.750000	73.513
4.820000	73.678
4.870000	73.806
4.940000	73.995
5.000000	74.161
5.080000	74.376
5.150000	74.553
5.220000	74.727
5.300000	74.923
5.380000	75.110
5.450000	75.261
5.520000	75.397
5.600000	75.537
5.700000	75.691
5.800000	75.823
5.900000	75.936
6.000000	76.022
6.080000	76.078
6.150000	76.120
6.220000	76.161
6.300000	76.202
6.400000	76.243
6.500000	76.281
6.600000	76.326
6.700000	76.379
6.800000	76.436
6.900000	76.499
7.000000	76.574
7.100000	76.659
7.200000	76.752
7.300000	76.847
7.400000	76.943
7.500000	77.043
7.620000	77.160
7.750000	77.275
7.880000	77.379
8.000000	77.464
8.120000	77.534
8.250000	77.595
8.380000	77.643
8.500000	77.681
8.620000	77.708
8.750000	77.735
8.850000	77.756
9.000000	77.786
9.120000	77.812
9.250000	77.847
9.380000	77.885
9.500000	77.923
9.620000	77.964
9.750000	78.013
9.880000	78.052
10.000000	78.075
10.150000	78.092
10.300000	78.099
10.440000	78.095
10.600000	78.084
10.750000	78.073
10.900000	78.060
11.060000	78.047
11.200000	78.036
11.380000	78.024
11.500000	78.019
11.720000	78.011
11.800000	78.009
12.060000	78.003
12.200000	77.998
12.410000	77.991
12.500000	77.994
12.650000	78.006
12.800000	78.022
13.150000	78.065
13.200000	78.072
13.400000	78.101
13.600000	78.131
13.800000	78.161
14.000000	78.189
14.300000	78.224
14.500000	78.241
14.750000	78.255
15.000000	78.263
15.250000	78.269
15.500000	78.275
15.750000	78.283
16.000000	78.294
16.250000	78.307
16.500000	78.320
16.750000	78.328
17.000000	78.332
17.250000	78.333
17.500000	78.332
17.750000	78.332
18.000000	78.331
18.250000	78.329
18.500000	78.326
18.750000	78.323
19.000000	78.320
19.250000	78.316
19.500000	78.313
19.750000	78.310
20.000000	78.308
20.299999	78.305
20.600000	78.302
20.900000	78.298
21.200001	78.294
21.400000	78.293
21.799999	78.292
22.000000	78.291
22.400000	78.287
22.700001	78.282
23.000000	78.274
23.299999	78.265
23.600000	78.255
24.000000	78.242
24.299999	78.231
24.700001	78.212
25.000000	78.194
25.400000	78.167
25.799999	78.137
26.200001	78.107
26.500000	78.085
26.900000	78.054
27.200001	78.031
27.600000	77.999
28.000000	77.967
28.500000	77.926
29.000000	77.884
29.500000	77.844
30.000000	77.805
30.400000	77.774
30.700001	77.749
31.100000	77.716
31.500000	77.681
32.000000	77.638
32.500000	77.594
33.000000	77.546
33.500000	77.495
34.000000	77.442
34.500000	77.389
35.000000	77.334
35.500000	77.279
36.000000	77.223
36.500000	77.167
37.000000	77.111
37.500000	77.056
38.200001	76.977
38.700001	76.922
39.500000	76.833
40.000000	76.778
40.599998	76.712
41.200001	76.646
41.799999	76.578
42.500000	76.500
43.099998	76.432
43.700001	76.363
44.400002	76.283
45.000000	76.213
45.500000	76.156
46.200001	76.076
46.799999	76.008
47.500000	75.928
48.200001	75.850
48.700001	75.793
49.400002	75.713
50.000000	75.645
50.799999	75.556
51.500000	75.478
52.200001	75.400
53.000000	75.312
53.799999	75.225
54.500000	75.149
55.200001	75.073
56.000000	74.986
57.000000	74.879
58.000000	74.772
59.000000	74.664
60.000000	74.557
60.799999	74.476
61.500000	74.405
62.200001	74.335
63.000000	74.254
64.000000	74.154
65.000000	74.053
66.000000	73.952
67.000000	73.853
68.000000	73.754
69.000000	73.658
70.000000	73.564
71.000000	73.471
72.000000	73.380
73.000000	73.289
74.000000	73.198
75.000000	73.109
76.199997	73.005
77.500000	72.891
78.800003	72.785
80.000000	72.686
81.199997	72.590
82.500000	72.488
83.800003	72.389
85.000000	72.307
86.199997	72.225
87.500000	72.131
88.500000	72.054
90.000000	71.947
91.199997	71.866
92.500000	71.780
93.800003	71.696
95.000000	71.619
96.199997	71.545
97.500000	71.466
98.800003	71.387
100.000000	71.316
101.500000	71.232
103.000000	71.149
104.400002	71.074
106.000000	70.991
107.500000	70.914
109.000000	70.837
110.599998	70.758
112.000000	70.691
113.800003	70.606
115.000000	70.553
117.199997	70.456
118.000000	70.422
120.599998	70.313
122.000000	70.257
124.099998	70.174
125.000000	70.141
126.500000	70.087
128.000000	70.037
131.500000	69.922
132.000000	69.906
134.000000	69.845
136.000000	69.785
138.000000	69.729
140.000000	69.673
143.000000	69.592
145.000000	69.540
147.500000	69.476
150.000000	69.416
152.500000	69.357
155.000000	69.300
157.500000	69.245
160.000000	69.190
162.500000	69.129
165.000000	69.068
167.500000	69.008
170.000000	68.950
172.500000	68.894
175.000000	68.839
177.500000	68.786
180.000000	68.735
182.500000	68.684
185.000000	68.636
187.500000	68.589
190.000000	68.542
192.500000	68.496
195.000000	68.452
197.500000	68.409
200.000000	68.370
203.000000	68.327
206.000000	68.286
209.000000	68.247
212.000000	68.210
214.000000	68.186
218.000000	68.139
220.000000	68.116
224.000000	68.070
227.000000	68.038
230.000000	68.008
233.000000	67.978
236.000000	67.948
240.000000	67.911
243.000000	67.884
247.000000	67.850
250.000000	67.824
254.000000	67.792
258.000000	67.762
262.000000	67.732
265.000000	67.711
269.000000	67.682
272.000000	67.663
276.000000	67.635
280.000000	67.608
285.000000	67.579
290.000000	67.548
295.000000	67.519
300.000000	67.491
304.000000	67.470
307.000000	67.453
311.000000	67.433
315.000000	67.413
320.000000	67.387
325.000000	67.363
330.000000	67.339
335.000000	67.315
340.000000	67.294
345.000000	67.273
350.000000	67.252
355.000000	67.233
360.000000	67.214
365.000000	67.195
370.000000	67.178
375.000000	67.162
382.000000	67.139
387.000000	67.123
395.000000	67.102
400.000000	67.091
406.000000	67.077
412.000000	67.067
418.000000	67.057
425.000000	67.044
431.000000	67.036
437.000000	67.027
444.000000	67.016
450.000000	67.007
455.000000	67.000
462.000000	66.990
468.000000	66.982
475.000000	66.972
482.000000	66.961
487.000000	66.952
494.000000	66.940
500.000000	66.931
508.000000	66.919
515.000000	66.910
522.000000	66.900
530.000000	66.889
538.000000	66.878
545.000000	66.869
552.000000	66.861
560.000000	66.851
570.000000	66.841
580.000000	66.829
590.000000	66.820
600.000000	66.810
608.000000	66.803
615.000000	66.799
622.000000	66.796
630.000000	66.795
640.000000	66.794
650.000000	66.794
660.000000	66.797
670.000000	66.800
680.000000	66.803
690.000000	66.809
700.000000	66.818
710.000000	66.829
720.000000	66.840
730.000000	66.854
740.000000	66.870
750.000000	66.887
762.000000	66.911
775.000000	66.940
788.000000	66.973
800.000000	67.004
812.000000	67.034
825.000000	67.070
838.000000	67.110
850.000000	67.150
862.000000	67.195
875.000000	67.250
885.000000	67.295
900.000000	67.369
912.000000	67.434
925.000000	67.508
938.000000	67.587
950.000000	67.664
962.000000	67.744
975.000000	67.834
988.000000	67.928
1000.000000	68.020
1015.000000	68.146
1030.000000	68.277
1044.000000	68.400
1060.000000	68.543
1075.000000	68.674
1090.000000	68.804
1106.000000	68.940
1120.000000	69.057
1138.000000	69.203
1150.000000	69.299
1172.000000	69.467
1180.000000	69.525
1206.000000	69.709
1220.000000	69.802
1241.000000	69.934
1250.000000	69.983
1265.000000	70.052
1280.000000	70.113
1315.000000	70.242
1320.000000	70.258
1340.000000	70.325
1360.000000	70.388
1380.000000	70.448
1400.000000	70.506
1430.000000	70.592
1450.000000	70.647
1475.000000	70.716
1500.000000	70.784
1525.000000	70.853
1550.000000	70.924
1575.000000	70.994
1600.000000	71.076
1625.000000	71.178
1650.000000	71.289
1675.000000	71.402
1700.000000	71.516
1725.000000	71.633
1750.000000	71.750
1775.000000	71.870
1800.000000	71.992
1825.000000	72.116
1850.000000	72.241
1875.000000	72.369
1900.000000	72.500
1925.000000	72.632
1950.000000	72.766
1975.000000	72.902
2000.000000	73.038
2030.000000	73.201
2060.000000	73.364
2090.000000	73.532
2120.000000	73.702
2140.000000	73.816
2180.000000	74.048
2200.000000	74.166
2240.000000	74.404
2270.000000	74.585
2300.000000	74.767
2330.000000	74.951
2360.000000	75.134
2400.000000	75.375
2430.000000	75.552
2470.000000	75.778
2500.000000	75.936
2540.000000	76.126
2580.000000	76.285
2620.000000	76.408
2650.000000	76.474
2690.000000	76.526
2720.000000	76.538
2760.000000	76.520
2800.000000	76.471
2850.000000	76.376
2900.000000	76.256
2950.000000	76.125
3000.000000	75.987
3040.000000	75.876
3070.000000	75.792
3110.000000	75.682
3150.000000	75.572
3200.000000	75.438
3250.000000	75.304
3300.000000	75.172
3350.000000	75.041
3400.000000	74.914
3450.000000	74.794
3500.000000	74.688
3550.000000	74.601
3600.000000	74.540
3650.000000	74.507
3700.000000	74.504
3750.000000	74.528
3820.000000	74.603
3870.000000	74.683
3950.000000	74.845
4000.000000	74.963
4060.000000	75.116
4120.000000	75.276
4180.000000	75.440
4250.000000	75.624
4310.000000	75.769
4370.000000	75.889
4440.000000	75.985
4500.000000	76.016
4550.000000	75.997
4620.000000	75.896
4680.000000	75.735
4750.000000	75.465
4820.000000	75.114
4870.000000	74.824
4940.000000	74.375
5000.000000	73.961
5080.000000	73.385
5150.000000	72.880
5220.000000	72.392
5300.000000	71.867
5380.000000	71.389
5450.000000	71.014
5520.000000	70.681
5600.000000	70.353
5700.000000	70.022
5800.000000	69.774
5900.000000	69.605
6000.000000	69.500
6080.000000	69.452
6150.000000	69.434
6220.000000	69.447
6300.000000	69.508
6400.000000	69.657
6500.000000	69.848
6600.000000	70.057
6700.000000	70.276
6800.000000	70.496
6900.000000	70.709
7000.000000	70.912
7100.000000	71.103
7200.000000	71.277
7300.000000	71.425
7400.000000	71.538
7500.000000	71.609
7620.000000	71.638
7750.000000	71.599
7880.000000	71.489
8000.000000	71.305
8120.000000	71.015
8250.000000	70.633
8380.000000	70.224
8500.000000	69.839
8620.000000	69.455
8750.000000	69.050
8850.000000	68.753
9000.000000	68.335
9120.000000	68.031
9250.000000	67.741
9380.000000	67.498
9500.000000	67.319
9620.000000	67.184
9750.000000	67.085
9880.000000	67.035
10000.000000	67.042
10150.000000	67.141
10300.000000	67.353
10440.000000	67.667
10600.000000	68.163
10750.000000	68.739
10900.000000	69.408
11060.000000	70.202
11200.000000	70.931
11380.000000	71.832
11500.000000	72.337
11720.000000	72.868
11800.000000	72.898
12060.000000	72.386
12200.000000	71.826
12410.000000	70.840
12500.000000	70.406
12650.000000	69.682
12800.000000	69.029
13150.000000	68.216
13200.000000	68.177
13400.000000	68.097
13600.000000	67.905
13800.000000	67.418
14000.000000	66.679
14300.000000	65.386
14500.000000	64.521
14750.000000	63.495
15000.000000	62.552
15250.000000	61.629
15500.000000	60.471
15750.000000	58.760
16000.000000	56.864
16250.000000	56.319
16500.000000	58.048
16750.000000	60.690
17000.000000	62.234
17250.000000	61.493
17500.000000	58.670
17750.000000	55.591
18000.000000	53.036
18250.000000	50.807
18500.000000	48.792
18750.000000	46.874
19000.000000	44.876
19250.000000	42.580
19500.000000	39.826
19750.000000	36.825
