* Measurement data measured by REW V5.20.13
* Source: C:\Users\marcu\OneDrive\Desktop\audio_db\FiiO FD11 Foam R.txt
* Format: Comma/Tab/Space delimited data
* Dated: Jun 18, 2023 2:59:21 PM
* REW Settings:
*  C-weighting compensation: Off
*  Target level: 75.0 dB
* Note: ; Measurement imported from C:\Users\marcu\OneDrive\Desktop\audio_db\FiiO FD11 Foam R.txt Format: Comma/Tab/Space delimited data 54613 values loaded, 0 Hz to 20,000 Hz 
* Measurement: FiiO FD11 Foam R
* Smoothing: None
* Frequency Step: 1/48 octave
* Start Frequency: 1.000 Hz
*
* Freq(Hz)	SPL(dB)	Phase(degrees)
1.000000	63.195	-74.2619
1.015000	62.999	-75.4432
1.030000	62.793	-76.6367
1.044000	62.592	-77.7626
1.060000	62.350	-79.0646
1.075000	62.111	-80.3009
1.090000	61.860	-81.5535
1.106000	61.575	-82.9513
1.120000	61.304	-84.4557
1.138000	60.925	-86.7872
1.150000	60.655	-88.5543
1.172000	60.128	-92.1490
1.180000	59.928	-93.5475
1.206000	59.249	-98.3179
1.220000	58.870	-100.9692
1.241000	58.287	-104.9538
1.250000	58.034	-106.6377
1.265000	57.610	-109.3762
1.280000	57.184	-111.9904
1.315000	56.197	-117.3517
1.320000	56.059	-118.0086
1.340000	55.512	-120.2961
1.360000	54.985	-121.9590
1.380000	54.481	-122.8899
1.400000	54.006	-122.9811
1.430000	53.362	-121.3080
1.450000	52.985	-118.8292
1.475000	52.578	-113.9338
1.500000	52.192	-106.3940
1.525000	51.820	-96.4263
1.550000	51.467	-84.4418
1.575000	51.136	-70.8512
1.600000	50.833	-56.0657
1.625000	50.562	-40.4962
1.650000	50.328	-24.5537
1.675000	50.136	-8.6491
1.700000	49.990	6.8066
1.725000	49.895	21.4024
1.750000	49.856	34.7273
1.775000	49.877	46.3704
1.800000	49.963	55.9208
1.825000	50.119	62.9674
1.850000	50.365	67.4191
1.875000	50.729	69.9490
1.900000	51.197	70.7987
1.925000	51.752	70.1835
1.950000	52.379	68.3186
1.975000	53.060	65.4193
2.000000	53.780	61.7007
2.030000	54.672	56.4599
2.060000	55.566	50.7213
2.090000	56.435	44.8565
2.120000	57.251	39.2376
2.140000	57.751	35.8119
2.180000	58.608	30.2249
2.200000	58.949	28.2778
2.240000	59.519	24.9782
2.270000	59.880	22.6065
2.300000	60.191	20.3126
2.330000	60.459	18.0871
2.360000	60.689	15.9206
2.400000	60.949	13.1074
2.430000	61.116	11.0418
2.470000	61.315	8.3289
2.500000	61.454	6.3130
2.540000	61.637	3.6321
2.580000	61.827	0.9431
2.620000	61.993	-1.7286
2.650000	62.097	-3.7122
2.690000	62.211	-6.3246
2.720000	62.281	-8.2558
2.760000	62.355	-10.7877
2.800000	62.409	-13.2642
2.850000	62.455	-16.2713
2.900000	62.482	-19.1676
2.950000	62.495	-21.9488
3.000000	62.478	-24.6765
3.040000	62.443	-26.8131
3.070000	62.407	-28.3780
3.110000	62.346	-30.4008
3.150000	62.273	-32.3357
3.200000	62.169	-34.6048
3.250000	62.054	-36.6775
3.300000	61.935	-38.5213
3.350000	61.794	-40.1783
3.400000	61.624	-41.6809
3.450000	61.438	-43.0107
3.500000	61.247	-44.1493
3.550000	61.063	-45.0785
3.600000	60.896	-45.7800
3.650000	60.758	-46.2354
3.700000	60.646	-46.3855
3.750000	60.536	-46.1691
3.820000	60.399	-45.4087
3.870000	60.326	-44.6580
3.950000	60.279	-43.3399
4.000000	60.306	-42.5797
4.060000	60.412	-41.8008
4.120000	60.599	-40.8871
4.180000	60.850	-39.8977
4.250000	61.199	-38.8084
4.310000	61.524	-38.0679
4.370000	61.853	-37.6327
4.440000	62.237	-37.6178
4.500000	62.600	-37.9347
4.550000	62.919	-38.3872
4.620000	63.372	-39.2503
4.680000	63.750	-40.1494
4.750000	64.159	-41.3142
4.820000	64.529	-42.6354
4.870000	64.782	-43.7412
4.940000	65.120	-45.4467
5.000000	65.392	-46.9903
5.080000	65.725	-49.0577
5.150000	65.987	-50.7886
5.220000	66.217	-52.5519
5.300000	66.448	-54.6051
5.380000	66.650	-56.6191
5.450000	66.808	-58.2840
5.520000	66.952	-59.8098
5.600000	67.087	-61.4523
5.700000	67.222	-63.3512
5.800000	67.339	-65.0251
5.900000	67.456	-66.4172
6.000000	67.556	-67.5134
6.080000	67.630	-68.2190
6.150000	67.700	-68.7422
6.220000	67.783	-69.2025
6.300000	67.891	-69.6163
6.400000	68.040	-69.9380
6.500000	68.205	-70.1718
6.600000	68.389	-70.4562
6.700000	68.599	-70.7680
6.800000	68.828	-71.0791
6.900000	69.064	-71.4616
7.000000	69.296	-71.9813
7.100000	69.534	-72.6258
7.200000	69.772	-73.3622
7.300000	69.997	-74.1636
7.400000	70.203	-75.0315
7.500000	70.397	-75.9887
7.620000	70.610	-77.1740
7.750000	70.813	-78.4106
7.880000	70.984	-79.6436
8.000000	71.124	-80.7291
8.120000	71.251	-81.7045
8.250000	71.370	-82.6580
8.380000	71.482	-83.5165
8.500000	71.586	-84.2192
8.620000	71.688	-84.8262
8.750000	71.801	-85.4359
8.850000	71.893	-85.9006
9.000000	72.038	-86.5536
9.120000	72.157	-87.0875
9.250000	72.287	-87.7178
9.380000	72.419	-88.3814
9.500000	72.537	-89.0276
9.620000	72.650	-89.7156
9.750000	72.769	-90.5031
9.880000	72.872	-91.3034
10.000000	72.945	-92.0479
10.150000	73.016	-92.9891
10.300000	73.074	-93.9015
10.440000	73.114	-94.7256
10.600000	73.153	-95.6370
10.750000	73.189	-96.4533
10.900000	73.224	-97.2402
11.060000	73.262	-98.0690
11.200000	73.296	-98.7814
11.380000	73.341	-99.6998
11.500000	73.371	-100.3192
11.720000	73.424	-101.4610
11.800000	73.442	-101.8787
12.060000	73.498	-103.2385
12.200000	73.524	-103.9590
12.410000	73.564	-105.0246
12.500000	73.587	-105.4723
12.650000	73.633	-106.2058
12.800000	73.683	-106.9297
13.150000	73.804	-108.5925
13.200000	73.821	-108.8294
13.400000	73.888	-109.7781
13.600000	73.953	-110.7226
13.800000	74.013	-111.6640
14.000000	74.069	-112.5819
14.300000	74.143	-113.9032
14.500000	74.189	-114.7298
14.750000	74.245	-115.7099
15.000000	74.302	-116.6377
15.250000	74.361	-117.5420
15.500000	74.418	-118.4404
15.750000	74.473	-119.3390
16.000000	74.523	-120.2349
16.250000	74.571	-121.1072
16.500000	74.614	-121.9462
16.750000	74.653	-122.7392
17.000000	74.690	-123.4964
17.250000	74.727	-124.2301
17.500000	74.763	-124.9574
17.750000	74.797	-125.6940
18.000000	74.829	-126.4387
18.250000	74.855	-127.1892
18.500000	74.877	-127.9299
18.750000	74.894	-128.6551
19.000000	74.908	-129.3596
19.250000	74.923	-130.0486
19.500000	74.939	-130.7308
19.750000	74.954	-131.4125
20.000000	74.971	-132.1000
20.299999	74.990	-132.9275
20.600000	75.007	-133.7502
20.900000	75.022	-134.5592
21.200001	75.037	-135.3498
21.400000	75.047	-135.8685
21.799999	75.068	-136.8902
22.000000	75.078	-137.3934
22.400000	75.097	-138.3789
22.700001	75.109	-139.0909
23.000000	75.120	-139.7735
23.299999	75.132	-140.4291
23.600000	75.145	-141.0642
24.000000	75.164	-141.8901
24.299999	75.176	-142.4988
24.700001	75.192	-143.2965
25.000000	75.202	-143.8831
25.400000	75.212	-144.6507
25.799999	75.219	-145.4046
26.200001	75.222	-146.1445
26.500000	75.223	-146.6872
26.900000	75.220	-147.3919
27.200001	75.217	-147.9083
27.600000	75.214	-148.5872
28.000000	75.209	-149.2608
28.500000	75.201	-150.0912
29.000000	75.193	-150.8964
29.500000	75.188	-151.6775
30.000000	75.187	-152.4546
30.400000	75.188	-153.0853
30.700001	75.188	-153.5643
31.100000	75.186	-154.2039
31.500000	75.181	-154.8313
32.000000	75.170	-155.5729
32.500000	75.158	-156.2526
33.000000	75.152	-156.8943
33.500000	75.149	-157.5454
34.000000	75.144	-158.2213
34.500000	75.132	-158.8803
35.000000	75.116	-159.4809
35.500000	75.106	-160.0464
36.000000	75.102	-160.6438
36.500000	75.095	-161.2962
37.000000	75.077	-161.9513
37.500000	75.054	-162.5472
38.200001	75.028	-163.2870
38.700001	75.017	-163.8112
39.500000	75.002	-164.6975
40.000000	74.990	-165.2516
40.599998	74.972	-165.8906
41.200001	74.955	-166.5003
41.799999	74.939	-167.0850
42.500000	74.919	-167.7440
43.099998	74.905	-168.3017
43.700001	74.889	-168.8587
44.400002	74.868	-169.4992
45.000000	74.850	-170.0319
45.500000	74.835	-170.4661
46.200001	74.815	-171.0621
46.799999	74.798	-171.5620
47.500000	74.779	-172.1398
48.200001	74.759	-172.7141
48.700001	74.743	-173.1120
49.400002	74.724	-173.6490
50.000000	74.708	-174.1128
50.799999	74.685	-174.7450
51.500000	74.662	-175.2744
52.200001	74.638	-175.7711
53.000000	74.615	-176.3330
53.799999	74.590	-176.8955
54.500000	74.568	-177.3663
55.200001	74.548	-177.8179
56.000000	74.526	-178.3411
57.000000	74.495	-178.9911
58.000000	74.467	-179.5999
59.000000	74.439	179.7574
60.000000	74.401	179.1423
60.799999	74.374	178.6935
61.500000	74.352	178.2908
62.200001	74.327	177.8904
63.000000	74.299	177.4662
64.000000	74.265	176.9512
65.000000	74.232	176.4305
66.000000	74.197	175.9167
67.000000	74.162	175.3969
68.000000	74.122	174.8981
69.000000	74.083	174.4344
70.000000	74.049	173.9815
71.000000	74.018	173.5306
72.000000	73.987	173.0682
73.000000	73.952	172.6049
74.000000	73.915	172.1754
75.000000	73.879	171.7424
76.199997	73.829	171.2547
77.500000	73.781	170.7723
78.800003	73.737	170.2732
80.000000	73.697	169.7968
81.199997	73.653	169.3201
82.500000	73.606	168.8772
83.800003	73.565	168.4437
85.000000	73.528	168.0376
86.199997	73.488	167.6320
87.500000	73.441	167.2179
88.500000	73.404	166.9146
90.000000	73.348	166.4628
91.199997	73.305	166.1051
92.500000	73.258	165.7130
93.800003	73.211	165.3215
95.000000	73.169	164.9742
96.199997	73.125	164.6517
97.500000	73.081	164.3287
98.800003	73.039	164.0112
100.000000	72.999	163.7144
101.500000	72.947	163.3526
103.000000	72.895	163.0029
104.400002	72.846	162.6901
106.000000	72.792	162.3300
107.500000	72.741	162.0032
109.000000	72.690	161.6812
110.599998	72.637	161.3493
112.000000	72.590	161.0690
113.800003	72.529	160.7253
115.000000	72.490	160.5117
117.199997	72.418	160.1137
118.000000	72.390	159.9815
120.599998	72.308	159.5686
122.000000	72.262	159.3541
124.099998	72.193	159.0406
125.000000	72.164	158.9068
126.500000	72.119	158.6823
128.000000	72.075	158.4662
131.500000	71.978	157.9818
132.000000	71.963	157.9167
134.000000	71.910	157.6740
136.000000	71.856	157.4271
138.000000	71.798	157.2014
140.000000	71.742	156.9890
143.000000	71.661	156.7081
145.000000	71.611	156.5214
147.500000	71.545	156.2853
150.000000	71.476	156.0784
152.500000	71.410	155.8677
155.000000	71.345	155.6648
157.500000	71.281	155.4973
160.000000	71.215	155.3267
162.500000	71.141	155.1739
165.000000	71.065	155.0422
167.500000	70.990	154.9310
170.000000	70.915	154.8052
172.500000	70.840	154.6889
175.000000	70.764	154.5939
177.500000	70.692	154.5090
180.000000	70.621	154.4091
182.500000	70.550	154.3073
185.000000	70.481	154.2433
187.500000	70.413	154.1954
190.000000	70.344	154.1554
192.500000	70.275	154.1207
195.000000	70.208	154.0811
197.500000	70.144	154.0421
200.000000	70.080	154.0058
203.000000	70.005	153.9857
206.000000	69.934	153.9904
209.000000	69.867	153.9901
212.000000	69.803	153.9858
214.000000	69.758	153.9835
218.000000	69.669	153.9947
220.000000	69.625	154.0157
224.000000	69.536	154.0867
227.000000	69.471	154.1414
230.000000	69.410	154.1873
233.000000	69.349	154.2343
236.000000	69.289	154.2839
240.000000	69.207	154.3814
243.000000	69.147	154.4659
247.000000	69.068	154.5695
250.000000	69.012	154.6566
254.000000	68.940	154.7664
258.000000	68.871	154.8810
262.000000	68.800	155.0385
265.000000	68.746	155.1625
269.000000	68.677	155.3014
272.000000	68.628	155.4034
276.000000	68.563	155.5704
280.000000	68.496	155.7596
285.000000	68.418	155.9752
290.000000	68.339	156.2004
295.000000	68.260	156.4334
300.000000	68.188	156.6838
304.000000	68.128	156.8890
307.000000	68.084	157.0529
311.000000	68.031	157.2730
315.000000	67.978	157.4769
320.000000	67.912	157.7148
325.000000	67.842	158.0098
330.000000	67.777	158.3160
335.000000	67.715	158.5940
340.000000	67.653	158.8995
345.000000	67.591	159.2072
350.000000	67.526	159.5003
355.000000	67.467	159.7993
360.000000	67.411	160.1183
365.000000	67.356	160.4401
370.000000	67.305	160.7461
375.000000	67.254	161.0728
382.000000	67.181	161.5111
387.000000	67.130	161.8195
395.000000	67.057	162.4053
400.000000	67.014	162.7500
406.000000	66.962	163.1062
412.000000	66.909	163.4814
418.000000	66.855	163.9064
425.000000	66.800	164.3790
431.000000	66.754	164.7989
437.000000	66.706	165.2265
444.000000	66.654	165.7175
450.000000	66.606	166.0945
455.000000	66.569	166.4112
462.000000	66.523	166.9080
468.000000	66.482	167.3799
475.000000	66.435	167.8724
482.000000	66.386	168.3353
487.000000	66.352	168.6821
494.000000	66.308	169.2065
500.000000	66.275	169.6660
508.000000	66.235	170.2329
515.000000	66.199	170.7207
522.000000	66.162	171.2335
530.000000	66.122	171.7938
538.000000	66.091	172.3826
545.000000	66.063	172.9596
552.000000	66.032	173.5119
560.000000	65.998	174.0881
570.000000	65.962	174.7852
580.000000	65.926	175.5567
590.000000	65.892	176.3568
600.000000	65.856	177.1396
608.000000	65.830	177.7530
615.000000	65.813	178.2859
622.000000	65.796	178.8204
630.000000	65.778	179.4505
640.000000	65.759	-179.7513
650.000000	65.740	-178.9570
660.000000	65.726	-178.1674
670.000000	65.712	-177.3493
680.000000	65.702	-176.5529
690.000000	65.695	-175.7750
700.000000	65.689	-174.9486
710.000000	65.685	-174.1198
720.000000	65.682	-173.2995
730.000000	65.686	-172.4786
740.000000	65.695	-171.6674
750.000000	65.703	-170.8527
762.000000	65.714	-169.8291
775.000000	65.736	-168.7393
788.000000	65.764	-167.6997
800.000000	65.786	-166.7101
812.000000	65.807	-165.6993
825.000000	65.838	-164.5813
838.000000	65.865	-163.5075
850.000000	65.897	-162.5501
862.000000	65.937	-161.5776
875.000000	65.982	-160.5230
885.000000	66.016	-159.7141
900.000000	66.079	-158.5131
912.000000	66.133	-157.5390
925.000000	66.201	-156.4848
938.000000	66.274	-155.4284
950.000000	66.352	-154.4557
962.000000	66.436	-153.4943
975.000000	66.532	-152.4632
988.000000	66.638	-151.4847
1000.000000	66.746	-150.6276
1015.000000	66.895	-149.6156
1030.000000	67.058	-148.6538
1044.000000	67.214	-147.8376
1060.000000	67.394	-146.9724
1075.000000	67.567	-146.2349
1090.000000	67.745	-145.5655
1106.000000	67.936	-144.9205
1120.000000	68.103	-144.4410
1138.000000	68.316	-143.9040
1150.000000	68.456	-143.5980
1172.000000	68.709	-143.1549
1180.000000	68.799	-143.0243
1206.000000	69.076	-142.6950
1220.000000	69.219	-142.5695
1241.000000	69.423	-142.4661
1250.000000	69.503	-142.4448
1265.000000	69.619	-142.4127
1280.000000	69.723	-142.3892
1315.000000	69.942	-142.3685
1320.000000	69.972	-142.3702
1340.000000	70.091	-142.4052
1360.000000	70.204	-142.4552
1380.000000	70.311	-142.4630
1400.000000	70.406	-142.4425
1430.000000	70.549	-142.4341
1450.000000	70.644	-142.4283
1475.000000	70.762	-142.4401
1500.000000	70.874	-142.4012
1525.000000	70.985	-142.3442
1550.000000	71.099	-142.3317
1575.000000	71.219	-142.3338
1600.000000	71.345	-142.3223
1625.000000	71.495	-142.3301
1650.000000	71.653	-142.3539
1675.000000	71.814	-142.4009
1700.000000	71.974	-142.4982
1725.000000	72.134	-142.6032
1750.000000	72.294	-142.7152
1775.000000	72.456	-142.8980
1800.000000	72.620	-143.1392
1825.000000	72.783	-143.3910
1850.000000	72.944	-143.6864
1875.000000	73.105	-144.0426
1900.000000	73.264	-144.4476
1925.000000	73.423	-144.9003
1950.000000	73.580	-145.4215
1975.000000	73.732	-145.9925
2000.000000	73.879	-146.6069
2030.000000	74.045	-147.4100
2060.000000	74.205	-148.3274
2090.000000	74.359	-149.3177
2120.000000	74.501	-150.3811
2140.000000	74.588	-151.1332
2180.000000	74.748	-152.7108
2200.000000	74.820	-153.5419
2240.000000	74.954	-155.3038
2270.000000	75.039	-156.6935
2300.000000	75.104	-158.0972
2330.000000	75.150	-159.5098
2360.000000	75.184	-160.9510
2400.000000	75.209	-162.8943
2430.000000	75.212	-164.3251
2470.000000	75.193	-166.1858
2500.000000	75.164	-167.5582
2540.000000	75.105	-169.3004
2580.000000	75.024	-170.9213
2620.000000	74.932	-172.4594
2650.000000	74.855	-173.5339
2690.000000	74.741	-174.8378
2720.000000	74.646	-175.7227
2760.000000	74.511	-176.7987
2800.000000	74.372	-177.7368
2850.000000	74.197	-178.7318
2900.000000	74.022	-179.5643
2950.000000	73.844	179.8048
3000.000000	73.665	179.3375
3040.000000	73.530	179.0542
3070.000000	73.433	178.9018
3110.000000	73.308	178.7761
3150.000000	73.190	178.7209
3200.000000	73.050	178.7367
3250.000000	72.913	178.8660
3300.000000	72.788	179.0769
3350.000000	72.679	179.3313
3400.000000	72.581	179.6699
3450.000000	72.488	-179.9161
3500.000000	72.410	-179.4677
3550.000000	72.348	-178.9982
3600.000000	72.295	-178.4647
3650.000000	72.252	-177.9140
3700.000000	72.222	-177.3508
3750.000000	72.206	-176.7675
3820.000000	72.205	-175.9405
3870.000000	72.217	-175.3477
3950.000000	72.256	-174.3999
4000.000000	72.296	-173.8243
4060.000000	72.362	-173.1634
4120.000000	72.440	-172.5382
4180.000000	72.529	-171.9619
4250.000000	72.655	-171.3554
4310.000000	72.784	-170.9407
4370.000000	72.927	-170.5878
4440.000000	73.110	-170.3204
4500.000000	73.284	-170.2297
4550.000000	73.436	-170.2507
4620.000000	73.659	-170.4686
4680.000000	73.861	-170.8369
4750.000000	74.105	-171.5359
4820.000000	74.348	-172.5148
4870.000000	74.516	-173.4046
4940.000000	74.744	-174.9522
5000.000000	74.918	-176.5522
5080.000000	75.099	-179.0498
5150.000000	75.213	178.4191
5220.000000	75.279	175.6351
5300.000000	75.279	172.2498
5380.000000	75.191	168.7840
5450.000000	75.048	165.7913
5520.000000	74.845	162.9526
5600.000000	74.547	160.0150
5700.000000	74.089	156.9339
5800.000000	73.574	154.5672
5900.000000	73.024	152.9257
6000.000000	72.459	151.9823
6080.000000	72.015	151.6545
6150.000000	71.637	151.6364
6220.000000	71.272	151.8297
6300.000000	70.881	152.2968
6400.000000	70.473	153.1626
6500.000000	70.111	154.2795
6600.000000	69.777	155.6360
6700.000000	69.470	157.1958
6800.000000	69.191	159.0303
6900.000000	68.944	161.1561
7000.000000	68.745	163.5522
7100.000000	68.616	166.0927
7200.000000	68.558	168.6517
7300.000000	68.558	171.1297
7400.000000	68.617	173.5066
7500.000000	68.729	175.7516
7620.000000	68.931	178.2381
7750.000000	69.235	-179.4248
7880.000000	69.643	-177.6486
8000.000000	70.071	-176.6269
8120.000000	70.490	-176.4262
8250.000000	70.983	-177.4209
8380.000000	71.474	-179.9684
8500.000000	71.852	176.0880
8620.000000	72.078	170.6514
8750.000000	72.058	163.5619
8850.000000	71.801	157.9060
9000.000000	71.048	150.2509
9120.000000	70.219	145.5068
9250.000000	69.198	141.9785
9380.000000	68.135	139.9714
9500.000000	67.169	139.2576
9620.000000	66.235	139.4379
9750.000000	65.272	140.4419
9880.000000	64.369	142.1381
10000.000000	63.608	144.1821
10150.000000	62.789	147.2564
10300.000000	62.077	150.8250
10440.000000	61.491	154.4731
10600.000000	60.914	158.9543
10750.000000	60.458	163.4121
10900.000000	60.086	168.0463
11060.000000	59.777	173.1170
11200.000000	59.576	177.6311
11380.000000	59.413	-176.5062
11500.000000	59.360	-172.6066
11720.000000	59.384	-165.4054
11800.000000	59.431	-162.8141
12060.000000	59.729	-154.5665
12200.000000	59.987	-150.2811
12410.000000	60.517	-144.1504
12500.000000	60.793	-141.6669
12650.000000	61.321	-137.8341
12800.000000	61.954	-134.4491
13150.000000	63.941	-129.6279
13200.000000	64.287	-129.4866
13400.000000	65.807	-131.2417
13600.000000	67.337	-138.2614
13800.000000	68.299	-151.7958
14000.000000	68.051	-168.4432
14300.000000	65.720	174.7343
14500.000000	63.796	171.1756
14750.000000	61.660	172.3441
15000.000000	59.983	177.1066
15250.000000	58.785	-175.9659
15500.000000	58.112	-167.7910
15750.000000	58.026	-159.4568
16000.000000	58.611	-152.5030
16250.000000	59.872	-148.7261
16500.000000	61.345	-148.9287
16750.000000	62.753	-153.0560
17000.000000	63.900	-161.2593
17250.000000	64.445	-173.2353
17500.000000	64.073	173.7141
17750.000000	62.857	163.5519
18000.000000	61.185	158.0302
18250.000000	59.370	156.5763
18500.000000	57.403	159.1356
18750.000000	55.482	171.3244
19000.000000	56.426	-173.3529
19250.000000	57.481	-176.9482
19500.000000	57.241	177.2344
19750.000000	56.704	171.8017
