* Measurement data measured by REW V5.20.13
* Source: C:\Users\marcu\OneDrive\Desktop\Fix\ n.Blue f.Green Foam R.txt
* Format: Comma/Tab/Space delimited data
* Dated: Jul 25, 2023 5:53:14 PM
* REW Settings:
*  C-weighting compensation: Off
*  Target level: 75.0 dB
* Note: ; Measurement imported from C:\Users\marcu\OneDrive\Desktop\Fix\ n.Blue f.Green Foam R.txt Format: Comma/Tab/Space delimited data 54613 values loaded, 0 Hz to 20,000 Hz 
* Measurement:  n.Blue f.Green Foam R
* Smoothing: None
* Frequency Step: 1/48 octave
* Start Frequency: 1.000 Hz
*
* Freq(Hz)	SPL(dB)	Phase(degrees)
1.000000	73.118	-114.1519
1.015000	73.074	-116.1037
1.030000	73.031	-118.0562
1.044000	72.993	-119.8786
1.060000	72.951	-121.9604
1.075000	72.914	-123.9107
1.090000	72.880	-125.8587
1.106000	72.845	-127.9355
1.120000	72.817	-129.7635
1.138000	72.782	-132.1303
1.150000	72.760	-133.7172
1.172000	72.722	-136.6424
1.180000	72.709	-137.7104
1.206000	72.669	-141.1935
1.220000	72.650	-143.0746
1.241000	72.622	-145.9001
1.250000	72.610	-147.1116
1.265000	72.592	-149.1301
1.280000	72.575	-151.1466
1.315000	72.540	-155.8350
1.320000	72.535	-156.5021
1.340000	72.517	-159.1610
1.360000	72.501	-161.8025
1.380000	72.486	-164.4229
1.400000	72.472	-167.0184
1.430000	72.454	-170.8572
1.450000	72.443	-173.3746
1.475000	72.430	-176.4719
1.500000	72.424	-179.5454
1.525000	72.423	177.3995
1.550000	72.426	174.3655
1.575000	72.433	171.3554
1.600000	72.443	168.3721
1.625000	72.455	165.4182
1.650000	72.467	162.4967
1.675000	72.479	159.6103
1.700000	72.490	156.7619
1.725000	72.499	153.9542
1.750000	72.505	151.1900
1.775000	72.507	148.4722
1.800000	72.504	145.8036
1.825000	72.494	143.1869
1.850000	72.480	140.6200
1.875000	72.467	138.0925
1.900000	72.454	135.6047
1.925000	72.440	133.1573
1.950000	72.424	130.7508
1.975000	72.406	128.3860
2.000000	72.385	126.0635
2.030000	72.354	123.3334
2.060000	72.317	120.6664
2.090000	72.271	118.0636
2.120000	72.215	115.5261
2.140000	72.171	113.8714
2.180000	72.068	110.6521
2.200000	72.007	109.0879
2.240000	71.876	106.0012
2.270000	71.769	103.7206
2.300000	71.655	101.4836
2.330000	71.533	99.3031
2.360000	71.401	97.1921
2.400000	71.209	94.5074
2.430000	71.052	92.6082
2.470000	70.822	90.2527
2.500000	70.633	88.6354
2.540000	70.358	86.7022
2.580000	70.052	85.0230
2.620000	69.691	83.3906
2.650000	69.388	82.2072
2.690000	68.954	80.7516
2.720000	68.613	79.7981
2.760000	68.151	78.7791
2.800000	67.693	78.1259
2.850000	67.150	77.9532
2.900000	66.664	78.6504
2.950000	66.254	80.4276
3.000000	65.833	83.6591
3.040000	65.493	87.1025
3.070000	65.248	90.0448
3.110000	64.949	94.2748
3.150000	64.698	98.6586
3.200000	64.481	104.0272
3.250000	64.402	108.8804
3.300000	64.499	112.8021
3.350000	64.818	116.1260
3.400000	65.338	119.2397
3.450000	66.000	122.0803
3.500000	66.745	124.5850
3.550000	67.515	126.6907
3.600000	68.250	128.3347
3.650000	68.893	129.4540
3.700000	69.432	129.9397
3.750000	69.949	129.7292
3.820000	70.640	128.5406
3.870000	71.104	127.2579
3.950000	71.784	124.8716
4.000000	72.165	123.4065
4.060000	72.571	121.8263
4.120000	72.921	120.0841
4.180000	73.222	118.1848
4.250000	73.521	115.8752
4.310000	73.741	113.9050
4.370000	73.935	112.0266
4.440000	74.131	109.9862
4.500000	74.259	108.2491
4.550000	74.341	106.8250
4.620000	74.425	104.9083
4.680000	74.478	103.3747
4.750000	74.525	101.7621
4.820000	74.554	100.3486
4.870000	74.554	99.4304
4.940000	74.534	98.2771
5.000000	74.508	97.4159
5.080000	74.475	96.4586
5.150000	74.460	95.8122
5.220000	74.442	95.3975
5.300000	74.420	95.1566
5.380000	74.408	95.0726
5.450000	74.417	95.0524
5.520000	74.453	95.0324
5.600000	74.525	95.1436
5.700000	74.647	95.4002
5.800000	74.796	95.5844
5.900000	74.965	95.5055
6.000000	75.169	95.2477
6.080000	75.346	94.9289
6.150000	75.500	94.5572
6.220000	75.642	94.0901
6.300000	75.794	93.4116
6.400000	75.980	92.3615
6.500000	76.149	91.1810
6.600000	76.289	89.9701
6.700000	76.397	88.6861
6.800000	76.479	87.3274
6.900000	76.537	85.9992
7.000000	76.574	84.7890
7.100000	76.583	83.6369
7.200000	76.572	82.5630
7.300000	76.554	81.6170
7.400000	76.532	80.8364
7.500000	76.499	80.1994
7.620000	76.459	79.5812
7.750000	76.438	79.0555
7.880000	76.433	78.7319
8.000000	76.445	78.4965
8.120000	76.477	78.2159
8.250000	76.538	77.9243
8.380000	76.611	77.5714
8.500000	76.681	77.1187
8.620000	76.760	76.5677
8.750000	76.842	75.8896
8.850000	76.894	75.3169
9.000000	76.962	74.3492
9.120000	77.004	73.5547
9.250000	77.034	72.7221
9.380000	77.049	71.8900
9.500000	77.056	71.1703
9.620000	77.059	70.5264
9.750000	77.055	69.8929
9.880000	77.046	69.3206
10.000000	77.030	68.8560
10.150000	77.004	68.3477
10.300000	76.982	67.8580
10.440000	76.966	67.4250
10.600000	76.951	66.9262
10.750000	76.944	66.4203
10.900000	76.939	65.8914
11.060000	76.932	65.3001
11.200000	76.925	64.7558
11.380000	76.912	64.0533
11.500000	76.899	63.5874
11.720000	76.872	62.7478
11.800000	76.861	62.4540
12.060000	76.824	61.5288
12.200000	76.804	61.0448
12.410000	76.778	60.3339
12.500000	76.774	60.0287
12.650000	76.778	59.5204
12.800000	76.785	59.0148
13.150000	76.799	57.8492
13.200000	76.800	57.6882
13.400000	76.804	57.0597
13.600000	76.807	56.4590
13.800000	76.812	55.8915
14.000000	76.820	55.3348
14.300000	76.838	54.5043
14.500000	76.853	53.9250
14.750000	76.869	53.1698
15.000000	76.879	52.3839
15.250000	76.879	51.6008
15.500000	76.872	50.8543
15.750000	76.861	50.1591
16.000000	76.854	49.5233
16.250000	76.858	48.9150
16.500000	76.871	48.3134
16.750000	76.889	47.6855
17.000000	76.906	47.0240
17.250000	76.920	46.3375
17.500000	76.928	45.6416
17.750000	76.929	44.9642
18.000000	76.930	44.3113
18.250000	76.930	43.6886
18.500000	76.932	43.0823
18.750000	76.936	42.4817
19.000000	76.942	41.8774
19.250000	76.947	41.2655
19.500000	76.952	40.6514
19.750000	76.956	40.0389
20.000000	76.959	39.4332
20.299999	76.966	38.7125
20.600000	76.973	37.9955
20.900000	76.979	37.2799
21.200001	76.984	36.5697
21.400000	76.986	36.1056
21.799999	76.990	35.2052
22.000000	76.993	34.7676
22.400000	77.003	33.9033
22.700001	77.012	33.2475
23.000000	77.020	32.5781
23.299999	77.024	31.9065
23.600000	77.025	31.2496
24.000000	77.025	30.4169
24.299999	77.026	29.8243
24.700001	77.031	29.0526
25.000000	77.037	28.4669
25.400000	77.047	27.6650
25.799999	77.051	26.8541
26.200001	77.052	26.0590
26.500000	77.052	25.4804
26.900000	77.050	24.7292
27.200001	77.050	24.1745
27.600000	77.051	23.4402
28.000000	77.052	22.7080
28.500000	77.054	21.7899
29.000000	77.054	20.8676
29.500000	77.049	19.9577
30.000000	77.042	19.0824
30.400000	77.040	18.4038
30.700001	77.039	17.8981
31.100000	77.038	17.2179
31.500000	77.037	16.5330
32.000000	77.033	15.6874
32.500000	77.027	14.8654
33.000000	77.023	14.0585
33.500000	77.017	13.2580
34.000000	77.012	12.4686
34.500000	77.006	11.6927
35.000000	77.000	10.9218
35.500000	76.993	10.1515
36.000000	76.985	9.3904
36.500000	76.976	8.6438
37.000000	76.967	7.9048
37.500000	76.958	7.1660
38.200001	76.945	6.1401
38.700001	76.934	5.4182
39.500000	76.914	4.2786
40.000000	76.902	3.5833
40.599998	76.888	2.7725
41.200001	76.876	1.9715
41.799999	76.865	1.1672
42.500000	76.848	0.2372
43.099998	76.832	-0.5401
43.700001	76.816	-1.3030
44.400002	76.797	-2.1844
45.000000	76.779	-2.9362
45.500000	76.764	-3.5579
46.200001	76.740	-4.4144
46.799999	76.719	-5.1309
47.500000	76.694	-5.9417
48.200001	76.671	-6.7324
48.700001	76.657	-7.2969
49.400002	76.634	-8.0920
50.000000	76.612	-8.7575
50.799999	76.581	-9.6036
51.500000	76.556	-10.3255
52.200001	76.529	-11.0398
53.000000	76.496	-11.8341
53.799999	76.462	-12.6025
54.500000	76.432	-13.2555
55.200001	76.401	-13.8911
56.000000	76.366	-14.5963
57.000000	76.325	-15.4637
58.000000	76.280	-16.3066
59.000000	76.234	-17.0896
60.000000	76.192	-17.8648
60.799999	76.154	-18.4594
61.500000	76.120	-18.9471
62.200001	76.089	-19.4250
63.000000	76.052	-19.9650
64.000000	76.003	-20.6144
65.000000	75.953	-21.2419
66.000000	75.903	-21.8527
67.000000	75.850	-22.4267
68.000000	75.800	-22.9713
69.000000	75.751	-23.5118
70.000000	75.699	-24.0396
71.000000	75.646	-24.5450
72.000000	75.591	-25.0295
73.000000	75.538	-25.4841
74.000000	75.484	-25.9385
75.000000	75.426	-26.3663
76.199997	75.364	-26.8329
77.500000	75.297	-27.3577
78.800003	75.230	-27.8396
80.000000	75.169	-28.2817
81.199997	75.108	-28.6979
82.500000	75.042	-29.1329
83.800003	74.973	-29.5649
85.000000	74.909	-29.9340
86.199997	74.844	-30.3047
87.500000	74.772	-30.6737
88.500000	74.722	-30.9443
90.000000	74.646	-31.3663
91.199997	74.583	-31.6721
92.500000	74.518	-31.9824
93.800003	74.452	-32.2802
95.000000	74.392	-32.5498
96.199997	74.331	-32.8116
97.500000	74.264	-33.0854
98.800003	74.198	-33.3547
100.000000	74.136	-33.6010
101.500000	74.058	-33.8864
103.000000	73.983	-34.1589
104.400002	73.916	-34.4103
106.000000	73.839	-34.6992
107.500000	73.765	-34.9423
109.000000	73.693	-35.1586
110.599998	73.618	-35.3846
112.000000	73.551	-35.5667
113.800003	73.466	-35.8049
115.000000	73.408	-35.9648
117.199997	73.301	-36.2494
118.000000	73.264	-36.3468
120.599998	73.146	-36.6311
122.000000	73.083	-36.7756
124.099998	72.989	-36.9717
125.000000	72.950	-37.0595
126.500000	72.885	-37.2027
128.000000	72.822	-37.3347
131.500000	72.684	-37.6107
132.000000	72.664	-37.6462
134.000000	72.585	-37.7845
136.000000	72.506	-37.9268
138.000000	72.427	-38.0670
140.000000	72.350	-38.1814
143.000000	72.241	-38.2976
145.000000	72.168	-38.3804
147.500000	72.077	-38.4951
150.000000	71.987	-38.6107
152.500000	71.896	-38.6948
155.000000	71.807	-38.7596
157.500000	71.719	-38.8185
160.000000	71.632	-38.8630
162.500000	71.539	-38.8937
165.000000	71.442	-38.9232
167.500000	71.350	-38.9670
170.000000	71.257	-38.9944
172.500000	71.164	-38.9901
175.000000	71.072	-38.9834
177.500000	70.979	-38.9800
180.000000	70.891	-38.9805
182.500000	70.805	-38.9805
185.000000	70.719	-38.9494
187.500000	70.633	-38.8823
190.000000	70.546	-38.8187
192.500000	70.459	-38.7687
195.000000	70.373	-38.7184
197.500000	70.293	-38.6735
200.000000	70.216	-38.6173
203.000000	70.126	-38.5478
206.000000	70.040	-38.4620
209.000000	69.956	-38.3541
212.000000	69.874	-38.2540
214.000000	69.819	-38.1967
218.000000	69.709	-38.0649
220.000000	69.657	-37.9857
224.000000	69.550	-37.8110
227.000000	69.471	-37.6663
230.000000	69.394	-37.5240
233.000000	69.319	-37.3773
236.000000	69.246	-37.2449
240.000000	69.150	-37.0649
243.000000	69.079	-36.9044
247.000000	68.987	-36.6890
250.000000	68.920	-36.5385
254.000000	68.832	-36.3448
258.000000	68.745	-36.1289
262.000000	68.661	-35.8691
265.000000	68.598	-35.6718
269.000000	68.513	-35.4418
272.000000	68.451	-35.2682
276.000000	68.374	-35.0085
280.000000	68.299	-34.7305
285.000000	68.207	-34.4235
290.000000	68.116	-34.1060
295.000000	68.029	-33.7814
300.000000	67.945	-33.4635
304.000000	67.877	-33.1824
307.000000	67.826	-32.9515
311.000000	67.759	-32.6566
315.000000	67.699	-32.3817
320.000000	67.622	-32.0134
325.000000	67.541	-31.6534
330.000000	67.464	-31.3225
335.000000	67.395	-30.9801
340.000000	67.323	-30.5953
345.000000	67.255	-30.2018
350.000000	67.186	-29.8223
355.000000	67.125	-29.4587
360.000000	67.060	-29.0959
365.000000	66.995	-28.7452
370.000000	66.937	-28.3760
375.000000	66.879	-27.9960
382.000000	66.800	-27.4784
387.000000	66.742	-27.1187
395.000000	66.653	-26.5044
400.000000	66.598	-26.1484
406.000000	66.533	-25.6949
412.000000	66.473	-25.2240
418.000000	66.413	-24.7463
425.000000	66.344	-24.2246
431.000000	66.286	-23.7861
437.000000	66.229	-23.3167
444.000000	66.167	-22.7366
450.000000	66.117	-22.2612
455.000000	66.078	-21.8654
462.000000	66.026	-21.3074
468.000000	65.982	-20.8655
475.000000	65.927	-20.3468
482.000000	65.878	-19.7992
487.000000	65.843	-19.3638
494.000000	65.796	-18.7582
500.000000	65.755	-18.2747
508.000000	65.700	-17.6426
515.000000	65.657	-17.1112
522.000000	65.619	-16.5566
530.000000	65.578	-15.9175
538.000000	65.535	-15.2449
545.000000	65.493	-14.6597
552.000000	65.456	-14.0974
560.000000	65.419	-13.4518
570.000000	65.371	-12.6249
580.000000	65.326	-11.8013
590.000000	65.285	-10.9709
600.000000	65.243	-10.0967
608.000000	65.213	-9.3835
615.000000	65.189	-8.7555
622.000000	65.168	-8.1163
630.000000	65.146	-7.3750
640.000000	65.127	-6.4731
650.000000	65.117	-5.5491
660.000000	65.111	-4.6438
670.000000	65.109	-3.7568
680.000000	65.110	-2.9006
690.000000	65.110	-2.0278
700.000000	65.112	-1.1261
710.000000	65.118	-0.2529
720.000000	65.128	0.6110
730.000000	65.140	1.4382
740.000000	65.153	2.2819
750.000000	65.172	3.1544
762.000000	65.200	4.1918
775.000000	65.231	5.3303
788.000000	65.271	6.4484
800.000000	65.315	7.4348
812.000000	65.357	8.4320
825.000000	65.406	9.5083
838.000000	65.462	10.5239
850.000000	65.519	11.4071
862.000000	65.578	12.2680
875.000000	65.642	13.1938
885.000000	65.690	13.9120
900.000000	65.766	14.9440
912.000000	65.831	15.7411
925.000000	65.904	16.5861
938.000000	65.978	17.4419
950.000000	66.050	18.2183
962.000000	66.126	18.9800
975.000000	66.208	19.7689
988.000000	66.295	20.5405
1000.000000	66.382	21.2389
1015.000000	66.503	22.0527
1030.000000	66.629	22.8259
1044.000000	66.747	23.5278
1060.000000	66.884	24.2905
1075.000000	67.010	24.9625
1090.000000	67.138	25.5966
1106.000000	67.276	26.2484
1120.000000	67.396	26.7706
1138.000000	67.551	27.4053
1150.000000	67.655	27.8230
1172.000000	67.842	28.5445
1180.000000	67.909	28.7915
1206.000000	68.122	29.5729
1220.000000	68.235	29.9965
1241.000000	68.402	30.6180
1250.000000	68.468	30.8705
1265.000000	68.566	31.2821
1280.000000	68.659	31.6973
1315.000000	68.876	32.6661
1320.000000	68.907	32.7969
1340.000000	69.034	33.3104
1360.000000	69.159	33.8559
1380.000000	69.284	34.3995
1400.000000	69.411	34.9340
1430.000000	69.614	35.7072
1450.000000	69.755	36.2052
1475.000000	69.935	36.8225
1500.000000	70.120	37.4290
1525.000000	70.311	38.0043
1550.000000	70.513	38.5403
1575.000000	70.720	39.0220
1600.000000	70.944	39.4713
1625.000000	71.197	39.8663
1650.000000	71.465	40.1709
1675.000000	71.738	40.4054
1700.000000	72.017	40.5607
1725.000000	72.297	40.6343
1750.000000	72.582	40.5937
1775.000000	72.868	40.4423
1800.000000	73.155	40.1808
1825.000000	73.438	39.8124
1850.000000	73.717	39.3216
1875.000000	73.993	38.7164
1900.000000	74.260	37.9857
1925.000000	74.519	37.1270
1950.000000	74.765	36.1572
1975.000000	74.999	35.0851
2000.000000	75.219	33.8864
2030.000000	75.462	32.2822
2060.000000	75.684	30.5362
2090.000000	75.887	28.6429
2120.000000	76.072	26.6033
2140.000000	76.187	25.1753
2180.000000	76.402	22.1592
2200.000000	76.501	20.5691
2240.000000	76.678	17.2797
2270.000000	76.788	14.7614
2300.000000	76.877	12.2002
2330.000000	76.945	9.6182
2360.000000	76.990	7.0665
2400.000000	77.014	3.7392
2430.000000	77.009	1.3308
2470.000000	76.975	-1.7238
2500.000000	76.931	-3.8790
2540.000000	76.850	-6.5504
2580.000000	76.750	-8.9772
2620.000000	76.637	-11.1348
2650.000000	76.546	-12.5957
2690.000000	76.420	-14.3430
2720.000000	76.325	-15.5129
2760.000000	76.199	-16.8986
2800.000000	76.077	-18.0868
2850.000000	75.932	-19.3408
2900.000000	75.801	-20.3605
2950.000000	75.689	-21.2104
3000.000000	75.593	-21.8855
3040.000000	75.530	-22.3271
3070.000000	75.492	-22.6215
3110.000000	75.453	-22.9619
3150.000000	75.429	-23.2524
3200.000000	75.418	-23.5744
3250.000000	75.433	-23.8785
3300.000000	75.467	-24.1694
3350.000000	75.522	-24.4609
3400.000000	75.603	-24.8133
3450.000000	75.711	-25.2177
3500.000000	75.840	-25.7151
3550.000000	75.992	-26.3212
3600.000000	76.163	-27.0828
3650.000000	76.354	-28.0127
3700.000000	76.560	-29.1597
3750.000000	76.780	-30.5784
3820.000000	77.105	-33.0775
3870.000000	77.342	-35.3163
3950.000000	77.708	-39.7959
4000.000000	77.913	-43.2311
4060.000000	78.116	-48.0312
4120.000000	78.252	-53.5631
4180.000000	78.306	-59.7281
4250.000000	78.239	-67.4221
4310.000000	78.060	-74.0249
4370.000000	77.765	-80.2216
4440.000000	77.285	-86.5572
4500.000000	76.771	-91.0720
4550.000000	76.288	-94.1918
4620.000000	75.551	-97.6395
4680.000000	74.886	-99.8346
4750.000000	74.098	-101.6554
4820.000000	73.318	-102.8033
4870.000000	72.773	-103.2848
4940.000000	72.028	-103.5538
5000.000000	71.411	-103.4594
5080.000000	70.618	-102.9731
5150.000000	69.961	-102.2608
5220.000000	69.336	-101.3005
5300.000000	68.663	-99.9726
5380.000000	68.037	-98.4349
5450.000000	67.525	-96.9302
5520.000000	67.040	-95.2423
5600.000000	66.518	-93.0117
5700.000000	65.962	-89.4475
5800.000000	65.723	-86.1066
5900.000000	65.443	-84.7715
6000.000000	65.014	-82.7767
6080.000000	64.710	-80.7397
6150.000000	64.480	-78.8085
6220.000000	64.281	-76.8351
6300.000000	64.104	-74.5345
6400.000000	63.982	-71.6387
6500.000000	63.922	-68.7361
6600.000000	63.907	-65.8438
6700.000000	63.948	-62.9783
6800.000000	64.038	-60.1708
6900.000000	64.182	-57.4276
7000.000000	64.376	-54.7390
7100.000000	64.627	-52.1544
7200.000000	64.942	-49.7734
7300.000000	65.308	-47.6155
7400.000000	65.727	-45.6785
7500.000000	66.204	-44.0315
7620.000000	66.861	-42.5320
7750.000000	67.664	-41.6535
7880.000000	68.562	-41.8243
8000.000000	69.429	-43.1818
8120.000000	70.227	-46.0060
8250.000000	70.992	-50.9569
8380.000000	71.551	-57.9028
8500.000000	71.773	-65.5428
8620.000000	71.659	-73.4005
8750.000000	71.186	-80.9382
8850.000000	70.646	-85.5046
9000.000000	69.711	-90.1550
9120.000000	68.958	-92.1476
9250.000000	68.214	-92.9544
9380.000000	67.582	-92.7103
9500.000000	67.114	-91.7891
9620.000000	66.767	-90.4000
9750.000000	66.538	-88.5686
9880.000000	66.477	-86.5691
10000.000000	66.591	-84.7469
10150.000000	66.996	-82.7839
10300.000000	67.682	-81.6566
10440.000000	68.564	-82.0054
10600.000000	69.797	-85.2585
10750.000000	70.947	-92.2809
10900.000000	71.725	-103.2983
11060.000000	71.863	-117.2690
11200.000000	71.421	-128.8228
11380.000000	70.339	-140.9608
11500.000000	69.408	-147.1930
11720.000000	67.473	-154.6935
11800.000000	66.753	-156.2073
12060.000000	64.604	-157.5306
12200.000000	63.641	-156.7184
12410.000000	62.449	-154.5640
12500.000000	62.009	-153.4412
12650.000000	61.352	-151.3824
12800.000000	60.798	-149.1051
13150.000000	60.013	-143.5874
13200.000000	59.959	-142.8521
13400.000000	59.910	-140.3162
13600.000000	60.132	-138.9113
13800.000000	60.613	-139.4807
14000.000000	61.276	-143.2656
14300.000000	61.972	-157.7098
14500.000000	61.541	-172.1028
14750.000000	59.636	171.9740
15000.000000	56.925	163.6268
15250.000000	54.251	161.7487
15500.000000	51.938	163.6622
15750.000000	50.011	167.5086
16000.000000	48.461	172.6760
16250.000000	47.475	178.8653
16500.000000	46.894	-174.8918
16750.000000	46.590	-168.9278
17000.000000	46.550	-163.2147
17250.000000	46.747	-158.2833
17500.000000	47.193	-154.7028
17750.000000	47.825	-153.1261
18000.000000	48.523	-154.7493
18250.000000	49.025	-160.3958
18500.000000	48.910	-169.2441
18750.000000	47.917	-178.3661
19000.000000	46.188	175.7611
19250.000000	44.065	174.1749
19500.000000	41.931	176.1561
19750.000000	39.903	-179.0857
