* Measurement data measured by REW V5.20.13
* Source: EXCL: Microphone (USB Sound Device        ), MICROPHONE (Master Volume), L, volume: 0.250
* Format: 256k Log Swept Sine, 1 sweep at -6.0 dBFS with no timing reference
* Dated: Sep 17, 2023 9:40:15 AM
* REW Settings:
*  C-weighting compensation: Off
*  Target level: 75.0 dB
* Note: ; 
* Measurement: n.Purple f.Black Foam L
* Smoothing: None
* Frequency Step: 1/48 octave
* Start Frequency: 1.000 Hz
*
* Freq(Hz)	SPL(dB)	Phase(degrees)
1.000000	54.083	122.2259
1.015000	53.915	121.4149
1.030000	53.741	120.6116
1.044000	53.573	119.8695
1.060000	53.374	119.0310
1.075000	53.180	118.2547
1.090000	52.978	117.4886
1.106000	52.756	116.6651
1.120000	52.563	115.8419
1.138000	52.318	114.6365
1.150000	52.155	113.7554
1.172000	51.856	112.0139
1.180000	51.747	111.3493
1.206000	51.385	109.1186
1.220000	51.186	107.8969
1.241000	50.878	106.0779
1.250000	50.742	105.3140
1.265000	50.509	104.0764
1.280000	50.267	102.8991
1.315000	49.664	100.4893
1.320000	49.572	100.1935
1.340000	49.192	99.1585
1.360000	48.786	98.3933
1.380000	48.352	97.9411
1.400000	47.888	97.8452
1.430000	47.127	98.4645
1.450000	46.574	99.4493
1.475000	45.814	101.4124
1.500000	44.882	104.3124
1.525000	43.785	108.0667
1.550000	42.560	112.5534
1.575000	41.242	117.6509
1.600000	39.867	123.2371
1.625000	38.470	129.1904
1.650000	37.087	135.3889
1.675000	35.753	141.7108
1.700000	34.505	148.0345
1.725000	33.378	154.2379
1.750000	32.408	160.1994
1.775000	31.630	165.7970
1.800000	31.081	170.9091
1.825000	30.795	175.4139
1.850000	30.805	179.3963
1.875000	31.102	-176.7208
1.900000	31.649	-172.9377
1.925000	32.409	-169.2750
1.950000	33.345	-165.7532
1.975000	34.419	-162.3927
2.000000	35.595	-159.2141
2.030000	37.087	-155.6688
2.060000	38.607	-152.4504
2.090000	40.092	-149.5943
2.120000	41.475	-147.1359
2.140000	42.310	-145.7354
2.180000	43.684	-143.5541
2.200000	44.186	-142.7952
2.240000	44.974	-142.1603
2.270000	45.447	-142.4231
2.300000	45.832	-143.2173
2.330000	46.141	-144.4509
2.360000	46.385	-146.0322
2.400000	46.630	-148.5225
2.430000	46.770	-150.5576
2.470000	46.918	-153.3194
2.500000	47.016	-155.3081
2.540000	47.152	-157.6747
2.580000	47.311	-159.5803
2.620000	47.436	-161.4333
2.650000	47.501	-162.8540
2.690000	47.551	-164.7728
2.720000	47.565	-166.2190
2.760000	47.554	-168.1403
2.800000	47.514	-170.0344
2.850000	47.430	-172.3324
2.900000	47.318	-174.5153
2.950000	47.182	-176.5640
3.000000	47.003	-178.6217
3.040000	46.828	179.7368
3.070000	46.681	178.5311
3.110000	46.466	176.9852
3.150000	46.232	175.5411
3.200000	45.918	173.9321
3.250000	45.586	172.6037
3.300000	45.242	171.6226
3.350000	44.850	170.9110
3.400000	44.402	170.4034
3.450000	43.923	170.1302
3.500000	43.439	170.1219
3.550000	42.976	170.4090
3.600000	42.561	171.0217
3.650000	42.219	171.9904
3.700000	41.951	173.4666
3.750000	41.715	175.6343
3.820000	41.447	179.4184
3.870000	41.312	-177.6559
3.950000	41.215	-173.2256
4.000000	41.241	-170.9718
4.060000	41.381	-169.0441
4.120000	41.671	-167.5071
4.180000	42.074	-166.3015
4.250000	42.623	-165.3560
4.310000	43.109	-164.9764
4.370000	43.561	-165.0278
4.440000	44.017	-165.7302
4.500000	44.407	-166.9743
4.550000	44.730	-168.3632
4.620000	45.169	-170.6712
4.680000	45.524	-172.8254
4.750000	45.901	-175.3345
4.820000	46.233	-177.8498
4.870000	46.448	-179.8058
4.940000	46.723	177.3207
5.000000	46.936	174.8165
5.080000	47.195	171.5594
5.150000	47.401	168.9001
5.220000	47.578	166.2907
5.300000	47.750	163.3640
5.380000	47.899	160.5861
5.450000	48.020	158.3508
5.520000	48.138	156.3542
5.600000	48.251	154.3053
5.700000	48.372	152.0690
5.800000	48.499	150.2053
5.900000	48.656	148.7417
6.000000	48.825	147.7618
6.080000	48.974	147.2337
6.150000	49.121	146.8775
6.220000	49.291	146.5539
6.300000	49.517	146.2694
6.400000	49.838	146.1207
6.500000	50.190	146.0238
6.600000	50.558	145.7880
6.700000	50.952	145.4085
6.800000	51.370	144.9507
6.900000	51.787	144.3902
7.000000	52.185	143.6990
7.100000	52.576	142.8521
7.200000	52.957	141.9081
7.300000	53.316	140.9387
7.400000	53.648	139.9671
7.500000	53.958	138.9463
7.620000	54.304	137.7417
7.750000	54.650	136.5653
7.880000	54.960	135.4859
8.000000	55.228	134.5904
8.120000	55.489	133.8244
8.250000	55.755	133.1420
8.380000	56.016	132.5584
8.500000	56.261	132.0793
8.620000	56.506	131.6828
8.750000	56.772	131.2749
8.850000	56.979	130.9368
9.000000	57.294	130.4298
9.120000	57.543	129.9928
9.250000	57.807	129.4570
9.380000	58.067	128.8706
9.500000	58.299	128.2970
9.620000	58.523	127.6923
9.750000	58.758	127.0002
9.880000	58.974	126.2999
10.000000	59.150	125.6551
10.150000	59.348	124.8438
10.300000	59.533	124.0487
10.440000	59.692	123.3247
10.600000	59.866	122.5074
10.750000	60.029	121.7494
10.900000	60.188	120.9966
11.060000	60.355	120.1798
11.200000	60.501	119.4555
11.380000	60.684	118.5056
11.500000	60.804	117.8569
11.720000	61.018	116.6480
11.800000	61.094	116.2041
12.060000	61.335	114.7485
12.200000	61.460	113.9675
12.410000	61.646	112.7985
12.500000	61.732	112.3001
12.650000	61.883	111.4731
12.800000	62.037	110.6479
13.150000	62.393	108.7231
13.200000	62.443	108.4482
13.400000	62.642	107.3469
13.600000	62.836	106.2532
13.800000	63.026	105.1691
14.000000	63.211	104.1085
14.300000	63.481	102.5683
14.500000	63.657	101.5827
14.750000	63.873	100.3894
15.000000	64.087	99.2344
15.250000	64.297	98.1022
15.500000	64.501	96.9875
15.750000	64.699	95.8891
16.000000	64.890	94.8116
16.250000	65.077	93.7649
16.500000	65.260	92.7529
16.750000	65.434	91.7795
17.000000	65.602	90.8381
17.250000	65.765	89.9222
17.500000	65.922	89.0231
17.750000	66.074	88.1322
18.000000	66.220	87.2474
18.250000	66.360	86.3670
18.500000	66.494	85.4929
18.750000	66.622	84.6258
19.000000	66.744	83.7669
19.250000	66.861	82.9159
19.500000	66.973	82.0727
19.750000	67.081	81.2372
20.000000	67.187	80.4098
20.299999	67.310	79.4280
20.600000	67.431	78.4576
20.900000	67.548	77.4967
21.200001	67.663	76.5424
21.400000	67.737	75.9092
21.799999	67.882	74.6532
22.000000	67.952	74.0332
22.400000	68.087	72.8170
22.700001	68.184	71.9303
23.000000	68.279	71.0662
23.299999	68.373	70.2214
23.600000	68.463	69.3932
24.000000	68.580	68.3126
24.299999	68.663	67.5215
24.700001	68.768	66.4963
25.000000	68.843	65.7506
25.400000	68.940	64.7845
25.799999	69.031	63.8440
26.200001	69.117	62.9233
26.500000	69.178	62.2439
26.900000	69.255	61.3520
27.200001	69.309	60.6926
27.600000	69.377	59.8255
28.000000	69.441	58.9720
28.500000	69.517	57.9240
29.000000	69.588	56.8928
29.500000	69.656	55.8712
30.000000	69.719	54.8603
30.400000	69.766	54.0680
30.700001	69.800	53.4880
31.100000	69.844	52.7342
31.500000	69.887	51.9983
32.000000	69.940	51.0944
32.500000	69.989	50.2070
33.000000	70.034	49.3441
33.500000	70.076	48.5102
34.000000	70.115	47.7018
34.500000	70.152	46.9145
35.000000	70.186	46.1465
35.500000	70.217	45.3939
36.000000	70.246	44.6500
36.500000	70.272	43.9132
37.000000	70.294	43.1906
37.500000	70.315	42.4883
38.200001	70.342	41.5308
38.700001	70.361	40.8530
39.500000	70.387	39.7836
40.000000	70.401	39.1385
40.599998	70.419	38.3905
41.200001	70.437	37.6580
41.799999	70.453	36.9357
42.500000	70.468	36.1162
43.099998	70.479	35.4370
43.700001	70.489	34.7713
44.400002	70.499	34.0110
45.000000	70.505	33.3788
45.500000	70.510	32.8629
46.200001	70.517	32.1501
46.799999	70.521	31.5505
47.500000	70.524	30.8677
48.200001	70.527	30.1967
48.700001	70.527	29.7265
49.400002	70.527	29.0885
50.000000	70.527	28.5538
50.799999	70.526	27.8434
51.500000	70.523	27.2354
52.200001	70.520	26.6528
53.000000	70.517	26.0017
53.799999	70.512	25.3551
54.500000	70.507	24.8080
55.200001	70.502	24.2798
56.000000	70.497	23.6837
57.000000	70.487	22.9548
58.000000	70.476	22.2465
59.000000	70.461	21.5706
60.000000	70.449	20.9192
60.799999	70.438	20.3888
61.500000	70.427	19.9405
62.200001	70.417	19.5077
63.000000	70.406	19.0099
64.000000	70.387	18.4100
65.000000	70.370	17.8360
66.000000	70.351	17.2659
67.000000	70.331	16.7249
68.000000	70.311	16.1928
69.000000	70.289	15.6739
70.000000	70.268	15.1636
71.000000	70.245	14.6662
72.000000	70.223	14.1802
73.000000	70.200	13.7081
74.000000	70.178	13.2545
75.000000	70.154	12.8095
76.199997	70.129	12.2988
77.500000	70.099	11.7325
78.800003	70.068	11.2027
80.000000	70.038	10.7101
81.199997	70.011	10.2646
82.500000	69.982	9.7660
83.800003	69.951	9.3018
85.000000	69.923	8.8778
86.199997	69.896	8.4624
87.500000	69.863	8.0197
88.500000	69.839	7.7080
90.000000	69.804	7.2293
91.199997	69.774	6.8633
92.500000	69.742	6.4856
93.800003	69.713	6.1227
95.000000	69.685	5.7682
96.199997	69.655	5.4379
97.500000	69.622	5.1026
98.800003	69.595	4.7685
100.000000	69.563	4.4504
101.500000	69.531	4.1012
103.000000	69.492	3.7250
104.400002	69.458	3.4135
106.000000	69.420	3.0724
107.500000	69.385	2.7424
109.000000	69.351	2.4294
110.599998	69.311	2.1036
112.000000	69.280	1.8444
113.800003	69.240	1.5058
115.000000	69.210	1.2847
117.199997	69.158	0.9201
118.000000	69.140	0.7950
120.599998	69.081	0.3519
122.000000	69.048	0.1291
124.099998	69.001	-0.1797
125.000000	68.981	-0.3150
126.500000	68.952	-0.5179
128.000000	68.927	-0.7135
131.500000	68.862	-1.1726
132.000000	68.852	-1.2344
134.000000	68.817	-1.4630
136.000000	68.781	-1.6866
138.000000	68.746	-1.9066
140.000000	68.708	-2.1064
143.000000	68.654	-2.4004
145.000000	68.621	-2.5968
147.500000	68.577	-2.7995
150.000000	68.533	-2.9900
152.500000	68.491	-3.1840
155.000000	68.448	-3.3630
157.500000	68.407	-3.5287
160.000000	68.366	-3.7022
162.500000	68.311	-3.8275
165.000000	68.256	-3.9697
167.500000	68.205	-4.0975
170.000000	68.154	-4.2104
172.500000	68.102	-4.2996
175.000000	68.050	-4.4012
177.500000	67.999	-4.4966
180.000000	67.947	-4.5772
182.500000	67.897	-4.6391
185.000000	67.850	-4.7073
187.500000	67.800	-4.7636
190.000000	67.752	-4.7952
192.500000	67.707	-4.8531
195.000000	67.659	-4.8830
197.500000	67.613	-4.9155
200.000000	67.569	-4.9289
203.000000	67.521	-4.9472
206.000000	67.474	-4.9608
209.000000	67.429	-4.9790
212.000000	67.384	-4.9675
214.000000	67.354	-4.9379
218.000000	67.298	-4.9377
220.000000	67.267	-4.9283
224.000000	67.214	-4.8914
227.000000	67.174	-4.8462
230.000000	67.133	-4.8032
233.000000	67.091	-4.7465
236.000000	67.050	-4.7086
240.000000	67.000	-4.6245
243.000000	66.960	-4.5516
247.000000	66.911	-4.4361
250.000000	66.874	-4.3762
254.000000	66.829	-4.2650
258.000000	66.786	-4.1442
262.000000	66.745	-4.0045
265.000000	66.706	-3.9311
269.000000	66.666	-3.7790
272.000000	66.633	-3.6958
276.000000	66.591	-3.5382
280.000000	66.553	-3.3812
285.000000	66.504	-3.2042
290.000000	66.456	-3.0005
295.000000	66.412	-2.7699
300.000000	66.365	-2.5677
304.000000	66.332	-2.3497
307.000000	66.307	-2.2197
311.000000	66.273	-2.0652
315.000000	66.239	-1.8685
320.000000	66.199	-1.6214
325.000000	66.161	-1.3828
330.000000	66.122	-1.1058
335.000000	66.086	-0.8556
340.000000	66.047	-0.5992
345.000000	66.014	-0.3338
350.000000	65.978	-0.0383
355.000000	65.946	0.2270
360.000000	65.912	0.5087
365.000000	65.881	0.8026
370.000000	65.854	1.0755
375.000000	65.826	1.3508
382.000000	65.784	1.7815
387.000000	65.753	2.0744
395.000000	65.716	2.5261
400.000000	65.689	2.8351
406.000000	65.659	3.1809
412.000000	65.632	3.5534
418.000000	65.608	3.9336
425.000000	65.581	4.3620
431.000000	65.553	4.7663
437.000000	65.533	5.1465
444.000000	65.507	5.6068
450.000000	65.485	5.9569
455.000000	65.466	6.2693
462.000000	65.444	6.7233
468.000000	65.422	7.1453
475.000000	65.407	7.5518
482.000000	65.384	8.0172
487.000000	65.376	8.3501
494.000000	65.354	8.8031
500.000000	65.339	9.1957
508.000000	65.325	9.7351
515.000000	65.317	10.2026
522.000000	65.304	10.6714
530.000000	65.289	11.2053
538.000000	65.283	11.7524
545.000000	65.278	12.2115
552.000000	65.269	12.6675
560.000000	65.262	13.2224
570.000000	65.249	13.9237
580.000000	65.247	14.6130
590.000000	65.244	15.2789
600.000000	65.240	15.9836
608.000000	65.232	16.5283
615.000000	65.239	17.0119
622.000000	65.242	17.5083
630.000000	65.245	18.0862
640.000000	65.249	18.7782
650.000000	65.258	19.4670
660.000000	65.264	20.1933
670.000000	65.280	20.9323
680.000000	65.292	21.6364
690.000000	65.307	22.3750
700.000000	65.321	23.1038
710.000000	65.336	23.8103
720.000000	65.358	24.5261
730.000000	65.377	25.2943
740.000000	65.396	26.0410
750.000000	65.423	26.7682
762.000000	65.455	27.6380
775.000000	65.491	28.6603
788.000000	65.532	29.6422
800.000000	65.566	30.5994
812.000000	65.603	31.5598
825.000000	65.641	32.6953
838.000000	65.701	33.8813
850.000000	65.772	34.8974
862.000000	65.871	35.8393
875.000000	65.973	36.6880
885.000000	66.042	37.2761
900.000000	66.135	38.1308
912.000000	66.211	38.8499
925.000000	66.284	39.6506
938.000000	66.368	40.4782
950.000000	66.458	41.2263
962.000000	66.544	41.9579
975.000000	66.643	42.6591
988.000000	66.743	43.3259
1000.000000	66.826	44.0266
1015.000000	66.973	44.7230
1030.000000	67.108	45.3839
1044.000000	67.237	46.0111
1060.000000	67.384	46.7130
1075.000000	67.524	47.2697
1090.000000	67.663	47.8596
1106.000000	67.803	48.4214
1120.000000	67.930	48.8907
1138.000000	68.091	49.4522
1150.000000	68.197	49.8184
1172.000000	68.387	50.4461
1180.000000	68.457	50.6525
1206.000000	68.680	51.3847
1220.000000	68.796	51.7001
1241.000000	68.970	52.2176
1250.000000	69.046	52.4274
1265.000000	69.139	52.7744
1280.000000	69.234	53.0974
1315.000000	69.455	53.8208
1320.000000	69.483	53.8985
1340.000000	69.607	54.3174
1360.000000	69.730	54.7050
1380.000000	69.852	55.0615
1400.000000	69.980	55.4182
1430.000000	70.164	55.9284
1450.000000	70.291	56.2835
1475.000000	70.451	56.6657
1500.000000	70.620	57.0116
1525.000000	70.781	57.3328
1550.000000	70.951	57.5954
1575.000000	71.121	57.8206
1600.000000	71.293	57.9871
1625.000000	71.504	58.0813
1650.000000	71.715	58.1043
1675.000000	71.928	58.0766
1700.000000	72.135	57.9766
1725.000000	72.345	57.7698
1750.000000	72.547	57.4977
1775.000000	72.747	57.0948
1800.000000	72.941	56.6149
1825.000000	73.131	56.0464
1850.000000	73.310	55.3385
1875.000000	73.485	54.5487
1900.000000	73.645	53.6315
1925.000000	73.803	52.5950
1950.000000	73.946	51.4708
1975.000000	74.084	50.2131
2000.000000	74.209	48.9365
2030.000000	74.343	47.1728
2060.000000	74.469	45.3540
2090.000000	74.578	43.4268
2120.000000	74.671	41.4416
2140.000000	74.725	40.0794
2180.000000	74.801	37.3734
2200.000000	74.826	36.0158
2240.000000	74.850	33.3442
2270.000000	74.847	31.4266
2300.000000	74.827	29.5834
2330.000000	74.789	27.8422
2360.000000	74.741	26.2099
2400.000000	74.657	24.2163
2430.000000	74.584	22.8337
2470.000000	74.477	21.2032
2500.000000	74.394	20.0926
2540.000000	74.272	18.8097
2580.000000	74.155	17.7329
2620.000000	74.038	16.8195
2650.000000	73.952	16.2131
2690.000000	73.846	15.5196
2720.000000	73.767	15.0775
2760.000000	73.658	14.5645
2800.000000	73.558	14.1482
2850.000000	73.438	13.6984
2900.000000	73.317	13.3457
2950.000000	73.196	13.1207
3000.000000	73.067	13.0375
3040.000000	72.954	13.1652
3070.000000	72.866	13.3659
3110.000000	72.754	13.8666
3150.000000	72.651	14.7005
3200.000000	72.561	16.2235
3250.000000	72.557	18.3438
3300.000000	72.688	20.8064
3350.000000	72.982	23.1261
3400.000000	73.426	24.7840
3450.000000	73.956	25.2853
3500.000000	74.506	24.4377
3550.000000	75.002	22.2451
3600.000000	75.415	18.8901
3650.000000	75.725	14.5798
3700.000000	75.929	9.6333
3750.000000	76.024	4.2961
3820.000000	75.988	-3.3394
3870.000000	75.856	-8.5434
3950.000000	75.472	-15.8856
4000.000000	75.132	-19.6672
4060.000000	74.644	-23.4101
4120.000000	74.087	-26.3026
4180.000000	73.487	-28.3468
4250.000000	72.773	-29.8385
4310.000000	72.173	-30.4200
4370.000000	71.601	-30.5244
4440.000000	70.992	-30.1586
4500.000000	70.532	-29.6259
4550.000000	70.195	-29.1852
4620.000000	69.786	-28.6035
4680.000000	69.476	-28.3175
4750.000000	69.181	-28.3143
4820.000000	68.896	-28.9373
4870.000000	68.665	-29.9204
4940.000000	68.219	-31.6884
5000.000000	67.659	-33.1988
5080.000000	66.680	-34.1474
5150.000000	65.706	-33.3143
5220.000000	64.762	-30.8923
5300.000000	63.845	-26.9556
5380.000000	63.095	-22.4023
5450.000000	62.565	-18.3422
5520.000000	62.133	-14.3150
5600.000000	61.733	-9.6916
5700.000000	61.286	-4.1866
5800.000000	60.976	1.4041
5900.000000	60.724	6.9840
6000.000000	60.501	12.6027
6080.000000	60.499	18.3549
6150.000000	60.782	21.8174
6220.000000	60.853	23.9632
6300.000000	60.869	27.2118
6400.000000	61.038	31.7470
6500.000000	61.325	36.2839
6600.000000	61.697	40.7289
6700.000000	62.120	45.0371
6800.000000	62.653	49.0041
6900.000000	63.279	52.8304
7000.000000	64.006	56.4034
7100.000000	64.855	59.5427
7200.000000	65.850	62.0722
7300.000000	66.984	63.6447
7400.000000	68.255	64.1262
7500.000000	69.664	62.8742
7620.000000	71.460	58.1838
7750.000000	73.256	47.6101
7880.000000	74.298	31.2564
8000.000000	74.244	14.8653
8120.000000	73.425	2.1232
8250.000000	72.312	-6.4989
8380.000000	71.338	-11.6398
8500.000000	70.664	-15.0590
8620.000000	70.210	-18.1738
8750.000000	69.929	-22.3785
8850.000000	69.787	-26.6937
9000.000000	69.512	-35.6495
9120.000000	69.042	-44.6271
9250.000000	68.086	-55.0005
9380.000000	66.701	-64.3071
9500.000000	65.175	-70.9714
9620.000000	63.570	-75.5876
9750.000000	61.818	-78.7652
9880.000000	60.204	-80.4991
10000.000000	58.766	-81.2811
10150.000000	57.270	-81.8560
10300.000000	55.905	-82.1219
10440.000000	54.706	-83.3733
10600.000000	53.333	-84.5642
10750.000000	51.967	-86.9560
10900.000000	50.435	-90.7947
11060.000000	48.528	-96.7085
11200.000000	46.383	-104.4068
11380.000000	42.654	-119.1160
11500.000000	39.092	-139.8555
11720.000000	35.565	141.7219
11800.000000	37.925	115.8360
12060.000000	43.593	81.1526
12200.000000	45.297	71.8935
12410.000000	46.975	65.7629
12500.000000	47.675	64.3186
12650.000000	48.666	63.0824
12800.000000	49.885	61.7118
13150.000000	53.202	50.9977
13200.000000	53.672	47.9830
13400.000000	54.811	31.0910
13600.000000	54.277	13.3158
13800.000000	52.652	2.4254
14000.000000	51.158	-0.4745
14300.000000	49.322	0.2411
14500.000000	48.572	4.5333
14750.000000	47.836	11.0732
15000.000000	47.669	17.6753
15250.000000	48.040	24.5096
15500.000000	48.959	32.1019
15750.000000	50.442	36.8369
16000.000000	52.583	34.6816
16250.000000	54.992	25.6185
16500.000000	56.209	10.0969
16750.000000	55.901	-5.1070
17000.000000	54.732	-12.7249
17250.000000	53.652	-14.0035
17500.000000	53.206	-12.3496
17750.000000	52.919	-9.5670
18000.000000	53.127	-8.0119
18250.000000	53.365	-8.6917
18500.000000	53.688	-10.2830
18750.000000	53.648	-14.6439
19000.000000	53.168	-19.2040
19250.000000	52.609	-20.2557
19500.000000	52.179	-21.8699
19750.000000	52.001	-26.5780
