* Measurement data measured by REW V5.20.13
* Source: C:\Users\marcu\OneDrive\Desktop\Fix\ n.Purple f.Black Foam R.txt
* Format: Comma/Tab/Space delimited data
* Dated: Jul 15, 2023 11:04:31 AM
* REW Settings:
*  C-weighting compensation: Off
*  Target level: 75.0 dB
* Note: ; Measurement imported from C:\Users\marcu\OneDrive\Desktop\Fix\ n.Purple f.Black Foam R.txt Format: Comma/Tab/Space delimited data 54613 values loaded, 0 Hz to 20,000 Hz 
* Measurement:  n.Purple f.Black Foam R
* Smoothing: None
* Frequency Step: 1/48 octave
* Start Frequency: 1.000 Hz
*
* Freq(Hz)	SPL(dB)	Phase(degrees)
1.000000	61.749	-62.8234
1.015000	61.572	-63.8364
1.030000	61.390	-64.8598
1.044000	61.214	-65.8251
1.060000	61.006	-66.9410
1.075000	60.804	-68.0003
1.090000	60.594	-69.0733
1.106000	60.363	-70.2900
1.120000	60.158	-71.7187
1.138000	59.892	-74.0708
1.150000	59.713	-75.9144
1.172000	59.379	-79.7526
1.180000	59.256	-81.2656
1.206000	58.846	-86.4699
1.220000	58.620	-89.3750
1.241000	58.272	-93.7356
1.250000	58.119	-95.5706
1.265000	57.860	-98.5364
1.280000	57.593	-101.3348
1.315000	56.942	-106.8791
1.320000	56.845	-107.5262
1.340000	56.448	-109.6643
1.360000	56.035	-110.9757
1.380000	55.604	-111.3196
1.400000	55.154	-110.5548
1.430000	54.441	-107.0204
1.450000	53.939	-102.8668
1.475000	53.269	-95.2866
1.500000	52.480	-84.0322
1.525000	51.575	-69.3929
1.550000	50.581	-51.9621
1.575000	49.523	-32.3331
1.600000	48.427	-11.0994
1.625000	47.318	11.1458
1.650000	46.222	33.8092
1.675000	45.164	56.2973
1.700000	44.170	78.0169
1.725000	43.265	98.3746
1.750000	42.476	116.7770
1.775000	41.827	132.6309
1.800000	41.344	145.3428
1.825000	41.053	154.3195
1.850000	40.978	159.3388
1.875000	41.115	161.1918
1.900000	41.438	160.2857
1.925000	41.917	156.9995
1.950000	42.527	151.7119
1.975000	43.238	144.8018
2.000000	44.024	136.6480
2.030000	45.027	125.7554
2.060000	46.049	114.2721
2.090000	47.044	102.8528
2.120000	47.962	92.1521
2.140000	48.509	85.7409
2.180000	49.381	75.5254
2.200000	49.679	72.0992
2.240000	50.136	66.8752
2.270000	50.410	63.6515
2.300000	50.629	60.9423
2.330000	50.793	58.6755
2.360000	50.907	56.7785
2.400000	50.982	54.6994
2.430000	50.985	53.3840
2.470000	50.920	51.8177
2.500000	50.824	50.6898
2.540000	50.637	49.1109
2.580000	50.377	47.2364
2.620000	49.963	44.6273
2.650000	49.560	42.3374
2.690000	48.930	39.1604
2.720000	48.407	36.9029
2.760000	47.676	34.3800
2.800000	46.939	32.7798
2.850000	46.069	32.6849
2.900000	45.325	35.4347
2.950000	44.753	41.9643
3.000000	44.172	53.6377
3.040000	43.701	65.8888
3.070000	43.366	76.2085
3.110000	42.970	90.7830
3.150000	42.663	105.4960
3.200000	42.453	122.7646
3.250000	42.497	137.2094
3.300000	42.860	146.5386
3.350000	43.664	146.7585
3.400000	44.874	147.2740
3.450000	46.352	147.9704
3.500000	47.963	148.7333
3.550000	49.573	149.4480
3.600000	51.044	150.0002
3.650000	52.241	150.2752
3.700000	53.115	149.7438
3.750000	53.824	148.6028
3.820000	54.605	146.4206
3.870000	55.048	144.6175
3.950000	55.638	141.6620
4.000000	55.976	139.9696
4.060000	56.378	138.2286
4.120000	56.709	136.5206
4.180000	56.971	134.8357
4.250000	57.209	132.9636
4.310000	57.374	131.4941
4.370000	57.517	130.2001
4.440000	57.661	128.9379
4.500000	57.736	128.0025
4.550000	57.772	127.3306
4.620000	57.797	126.5704
4.680000	57.810	126.1009
4.750000	57.836	125.7850
4.820000	57.868	125.7735
4.870000	57.879	125.9664
4.940000	57.890	126.4458
5.000000	57.907	126.9859
5.080000	57.961	127.7828
5.150000	58.055	128.4702
5.220000	58.187	129.3133
5.300000	58.373	130.4168
5.380000	58.588	131.4950
5.450000	58.794	132.2745
5.520000	59.012	132.7904
5.600000	59.297	133.1693
5.700000	59.686	133.3807
5.800000	60.076	133.2881
5.900000	60.430	132.8654
6.000000	60.770	132.0431
6.080000	61.030	131.1761
6.150000	61.241	130.3330
6.220000	61.434	129.4671
6.300000	61.627	128.4189
6.400000	61.837	126.9531
6.500000	62.016	125.4382
6.600000	62.172	124.0066
6.700000	62.297	122.6420
6.800000	62.394	121.3132
6.900000	62.479	120.0773
7.000000	62.564	118.9878
7.100000	62.637	118.0398
7.200000	62.706	117.1989
7.300000	62.786	116.4329
7.400000	62.883	115.7444
7.500000	62.989	115.1616
7.620000	63.134	114.4992
7.750000	63.315	113.7085
7.880000	63.526	112.8941
8.000000	63.734	112.0752
8.120000	63.945	111.1284
8.250000	64.185	109.9722
8.380000	64.424	108.7251
8.500000	64.631	107.5098
8.620000	64.832	106.2111
8.750000	65.039	104.7882
8.850000	65.187	103.7234
9.000000	65.394	102.1291
9.120000	65.552	100.9049
9.250000	65.716	99.6724
9.380000	65.872	98.5163
9.500000	66.015	97.5144
9.620000	66.162	96.5831
9.750000	66.324	95.6503
9.880000	66.480	94.7566
10.000000	66.617	93.9576
10.150000	66.780	92.9995
10.300000	66.940	92.0400
10.440000	67.084	91.1402
10.600000	67.244	90.1139
10.750000	67.387	89.1468
10.900000	67.523	88.1830
11.060000	67.659	87.1873
11.200000	67.768	86.3389
11.380000	67.899	85.3016
11.500000	67.981	84.6507
11.720000	68.122	83.5272
11.800000	68.171	83.1410
12.060000	68.326	81.9570
12.200000	68.407	81.3424
12.410000	68.526	80.4472
12.500000	68.581	80.0631
12.650000	68.680	79.4251
12.800000	68.778	78.7881
13.150000	68.988	77.2983
13.200000	69.016	77.0872
13.400000	69.123	76.2475
13.600000	69.222	75.4182
13.800000	69.314	74.6019
14.000000	69.401	73.7911
14.300000	69.523	72.5805
14.500000	69.598	71.7688
14.750000	69.686	70.7512
15.000000	69.767	69.7325
15.250000	69.843	68.7241
15.500000	69.915	67.7305
15.750000	69.985	66.7522
16.000000	70.058	65.7831
16.250000	70.135	64.8131
16.500000	70.217	63.8399
16.750000	70.296	62.8621
17.000000	70.371	61.8945
17.250000	70.443	60.9475
17.500000	70.513	60.0352
17.750000	70.583	59.1644
18.000000	70.653	58.3311
18.250000	70.724	57.5301
18.500000	70.798	56.7476
18.750000	70.871	55.9801
19.000000	70.942	55.2243
19.250000	71.010	54.4855
19.500000	71.074	53.7699
19.750000	71.134	53.0821
20.000000	71.192	52.4252
20.299999	71.259	51.6728
20.600000	71.324	50.9533
20.900000	71.385	50.2585
21.200001	71.443	49.5811
21.400000	71.479	49.1359
21.799999	71.547	48.2519
22.000000	71.579	47.8086
22.400000	71.636	46.9124
22.700001	71.669	46.2369
23.000000	71.696	45.5749
23.299999	71.718	44.9465
23.600000	71.738	44.3609
24.000000	71.770	43.6366
24.299999	71.800	43.1039
24.700001	71.849	42.3562
25.000000	71.888	41.7472
25.400000	71.934	40.8846
25.799999	71.971	40.0208
26.200001	72.001	39.2096
26.500000	72.023	38.6418
26.900000	72.056	37.9185
27.200001	72.081	37.3836
27.600000	72.113	36.6749
28.000000	72.138	35.9960
28.500000	72.162	35.2373
29.000000	72.188	34.5751
29.500000	72.222	33.9399
30.000000	72.253	33.2705
30.400000	72.272	32.7169
30.700001	72.281	32.3079
31.100000	72.290	31.7866
31.500000	72.296	31.2907
32.000000	72.305	30.6813
32.500000	72.314	30.0587
33.000000	72.320	29.4258
33.500000	72.324	28.8002
34.000000	72.329	28.1900
34.500000	72.335	27.5948
35.000000	72.343	27.0157
35.500000	72.353	26.4503
36.000000	72.366	25.8862
36.500000	72.377	25.3187
37.000000	72.384	24.7693
37.500000	72.390	24.2626
38.200001	72.402	23.5955
38.700001	72.412	23.0988
39.500000	72.413	22.3021
40.000000	72.406	21.8767
40.599998	72.407	21.4300
41.200001	72.418	20.9552
41.799999	72.425	20.4266
42.500000	72.426	19.8250
43.099998	72.426	19.3485
43.700001	72.428	18.8626
44.400002	72.426	18.2845
45.000000	72.419	17.8319
45.500000	72.414	17.4915
46.200001	72.413	17.0232
46.799999	72.413	16.6027
47.500000	72.411	16.1110
48.200001	72.407	15.6323
48.700001	72.403	15.2918
49.400002	72.397	14.8181
50.000000	72.391	14.4260
50.799999	72.383	13.9298
51.500000	72.379	13.5114
52.200001	72.374	13.0898
53.000000	72.365	12.6071
53.799999	72.352	12.1696
54.500000	72.344	11.8173
55.200001	72.338	11.4549
56.000000	72.330	11.0305
57.000000	72.321	10.4716
58.000000	72.299	9.9168
59.000000	72.280	9.4747
60.000000	72.272	9.0059
60.799999	72.261	8.6407
61.500000	72.255	8.3408
62.200001	72.253	7.9997
63.000000	72.239	7.5962
64.000000	72.217	7.1618
65.000000	72.197	6.7193
66.000000	72.171	6.3196
67.000000	72.156	5.9607
68.000000	72.144	5.5458
69.000000	72.126	5.1473
70.000000	72.111	4.7507
71.000000	72.091	4.3379
72.000000	72.067	3.9791
73.000000	72.044	3.6367
74.000000	72.023	3.3540
75.000000	72.016	3.0106
76.199997	71.979	2.5139
77.500000	71.945	2.2268
78.800003	71.925	1.7968
80.000000	71.897	1.4565
81.199997	71.880	1.0971
82.500000	71.855	0.6779
83.800003	71.826	0.2829
85.000000	71.800	-0.0678
86.199997	71.772	-0.4190
87.500000	71.738	-0.7536
88.500000	71.716	-0.9838
90.000000	71.687	-1.3426
91.199997	71.665	-1.6312
92.500000	71.640	-1.9476
93.800003	71.612	-2.2544
95.000000	71.585	-2.5158
96.199997	71.559	-2.7721
97.500000	71.530	-3.0609
98.800003	71.499	-3.3154
100.000000	71.475	-3.5430
101.500000	71.444	-3.8525
103.000000	71.411	-4.1710
104.400002	71.378	-4.4451
106.000000	71.347	-4.7432
107.500000	71.317	-5.0275
109.000000	71.285	-5.2937
110.599998	71.251	-5.5432
112.000000	71.220	-5.7661
113.800003	71.179	-6.0561
115.000000	71.151	-6.2378
117.199997	71.102	-6.5667
118.000000	71.085	-6.6837
120.599998	71.028	-7.0629
122.000000	70.998	-7.2604
124.099998	70.951	-7.5315
125.000000	70.934	-7.6405
126.500000	70.907	-7.8265
128.000000	70.882	-8.0145
131.500000	70.818	-8.4644
132.000000	70.809	-8.5240
134.000000	70.775	-8.7499
136.000000	70.743	-8.9738
138.000000	70.710	-9.1929
140.000000	70.673	-9.3811
143.000000	70.620	-9.6385
145.000000	70.586	-9.8200
147.500000	70.544	-10.0429
150.000000	70.502	-10.2323
152.500000	70.458	-10.4498
155.000000	70.411	-10.6465
157.500000	70.369	-10.8037
160.000000	70.326	-10.9523
162.500000	70.273	-11.1093
165.000000	70.219	-11.2731
167.500000	70.164	-11.4416
170.000000	70.108	-11.5758
172.500000	70.057	-11.6888
175.000000	70.005	-11.8139
177.500000	69.953	-11.9301
180.000000	69.899	-12.0410
182.500000	69.845	-12.1253
185.000000	69.794	-12.2119
187.500000	69.744	-12.2978
190.000000	69.695	-12.3765
192.500000	69.643	-12.4512
195.000000	69.592	-12.5288
197.500000	69.541	-12.6179
200.000000	69.492	-12.6804
203.000000	69.442	-12.7245
206.000000	69.391	-12.7578
209.000000	69.343	-12.8075
212.000000	69.292	-12.8583
214.000000	69.256	-12.8795
218.000000	69.190	-12.8979
220.000000	69.159	-12.9045
224.000000	69.094	-12.9358
227.000000	69.047	-12.9858
230.000000	69.000	-13.0056
233.000000	68.954	-12.9807
236.000000	68.908	-12.9503
240.000000	68.845	-12.9258
243.000000	68.799	-12.9241
247.000000	68.738	-12.9124
250.000000	68.695	-12.8786
254.000000	68.636	-12.8281
258.000000	68.578	-12.7676
262.000000	68.525	-12.7110
265.000000	68.487	-12.6692
269.000000	68.435	-12.6067
272.000000	68.394	-12.5374
276.000000	68.341	-12.4291
280.000000	68.290	-12.3371
285.000000	68.230	-12.2516
290.000000	68.168	-12.1211
295.000000	68.106	-11.9607
300.000000	68.045	-11.8131
304.000000	68.000	-11.7187
307.000000	67.966	-11.6269
311.000000	67.919	-11.4966
315.000000	67.870	-11.3643
320.000000	67.813	-11.1819
325.000000	67.755	-10.9857
330.000000	67.704	-10.8151
335.000000	67.653	-10.6151
340.000000	67.600	-10.4063
345.000000	67.545	-10.2188
350.000000	67.494	-10.0370
355.000000	67.446	-9.8147
360.000000	67.398	-9.5854
365.000000	67.351	-9.3596
370.000000	67.302	-9.1416
375.000000	67.253	-8.9057
382.000000	67.192	-8.5830
387.000000	67.150	-8.3570
395.000000	67.080	-7.9774
400.000000	67.039	-7.7408
406.000000	66.990	-7.4582
412.000000	66.943	-7.1775
418.000000	66.894	-6.8732
425.000000	66.840	-6.4960
431.000000	66.793	-6.1804
437.000000	66.746	-5.8624
444.000000	66.697	-5.4943
450.000000	66.655	-5.1942
455.000000	66.619	-4.9418
462.000000	66.568	-4.5607
468.000000	66.526	-4.2115
475.000000	66.479	-3.8074
482.000000	66.432	-3.4080
487.000000	66.397	-3.1156
494.000000	66.350	-2.7072
500.000000	66.312	-2.3555
508.000000	66.266	-1.8763
515.000000	66.226	-1.4286
522.000000	66.189	-0.9909
530.000000	66.147	-0.4852
538.000000	66.103	0.0267
545.000000	66.070	0.4649
552.000000	66.032	0.9120
560.000000	65.992	1.4381
570.000000	65.943	2.1219
580.000000	65.893	2.7957
590.000000	65.847	3.4808
600.000000	65.802	4.1918
608.000000	65.772	4.7759
615.000000	65.742	5.3033
622.000000	65.713	5.8605
630.000000	65.683	6.4859
640.000000	65.651	7.2727
650.000000	65.626	8.1012
660.000000	65.605	8.9367
670.000000	65.585	9.7702
680.000000	65.572	10.5845
690.000000	65.565	11.3952
700.000000	65.559	12.2049
710.000000	65.554	13.0026
720.000000	65.556	13.8076
730.000000	65.553	14.6044
740.000000	65.555	15.4363
750.000000	65.559	16.2679
762.000000	65.569	17.2810
775.000000	65.582	18.3755
788.000000	65.601	19.4474
800.000000	65.624	20.4771
812.000000	65.647	21.4935
825.000000	65.675	22.5606
838.000000	65.710	23.6268
850.000000	65.749	24.6000
862.000000	65.797	25.5506
875.000000	65.848	26.5298
885.000000	65.891	27.2593
900.000000	65.959	28.3776
912.000000	66.013	29.2529
925.000000	66.073	30.1801
938.000000	66.139	31.0794
950.000000	66.203	31.8975
962.000000	66.269	32.7058
975.000000	66.346	33.5562
988.000000	66.427	34.4061
1000.000000	66.508	35.1638
1015.000000	66.621	36.0558
1030.000000	66.742	36.9175
1044.000000	66.855	37.6989
1060.000000	66.985	38.5584
1075.000000	67.109	39.3206
1090.000000	67.236	40.0238
1106.000000	67.371	40.7380
1120.000000	67.488	41.3555
1138.000000	67.637	42.1084
1150.000000	67.736	42.5764
1172.000000	67.914	43.3936
1180.000000	67.979	43.6864
1206.000000	68.185	44.6347
1220.000000	68.292	45.1145
1241.000000	68.451	45.7890
1250.000000	68.515	46.0924
1265.000000	68.610	46.5870
1280.000000	68.694	47.0718
1315.000000	68.885	48.2209
1320.000000	68.914	48.3821
1340.000000	69.032	49.0117
1360.000000	69.150	49.6237
1380.000000	69.271	50.2778
1400.000000	69.393	50.9431
1430.000000	69.585	51.8757
1450.000000	69.718	52.4877
1475.000000	69.885	53.2748
1500.000000	70.059	54.0568
1525.000000	70.246	54.7849
1550.000000	70.441	55.4693
1575.000000	70.642	56.1338
1600.000000	70.858	56.7517
1625.000000	71.107	57.3145
1650.000000	71.374	57.7919
1675.000000	71.647	58.1849
1700.000000	71.924	58.5074
1725.000000	72.201	58.7486
1750.000000	72.484	58.8830
1775.000000	72.771	58.8949
1800.000000	73.059	58.7956
1825.000000	73.344	58.5967
1850.000000	73.624	58.2950
1875.000000	73.902	57.8662
1900.000000	74.178	57.3005
1925.000000	74.447	56.6306
1950.000000	74.706	55.8667
1975.000000	74.954	54.9883
2000.000000	75.190	54.0016
2030.000000	75.457	52.6681
2060.000000	75.703	51.1811
2090.000000	75.930	49.5672
2120.000000	76.136	47.8257
2140.000000	76.261	46.5937
2180.000000	76.480	43.9760
2200.000000	76.571	42.6134
2240.000000	76.721	39.7971
2270.000000	76.802	37.6106
2300.000000	76.858	35.4152
2330.000000	76.889	33.2247
2360.000000	76.896	31.0487
2400.000000	76.872	28.2420
2430.000000	76.828	26.2277
2470.000000	76.744	23.7064
2500.000000	76.665	21.9338
2540.000000	76.541	19.7628
2580.000000	76.398	17.8465
2620.000000	76.242	16.1736
2650.000000	76.123	15.0542
2690.000000	75.960	13.7546
2720.000000	75.838	12.9384
2760.000000	75.679	12.0128
2800.000000	75.528	11.2457
2850.000000	75.349	10.5391
2900.000000	75.181	10.0587
2950.000000	75.037	9.7577
3000.000000	74.918	9.6073
3040.000000	74.840	9.5675
3070.000000	74.790	9.5878
3110.000000	74.731	9.6773
3150.000000	74.686	9.8127
3200.000000	74.654	10.0275
3250.000000	74.651	10.2636
3300.000000	74.673	10.4970
3350.000000	74.716	10.7410
3400.000000	74.781	10.9624
3450.000000	74.879	11.1043
3500.000000	75.006	11.1668
3550.000000	75.157	11.1225
3600.000000	75.326	10.9616
3650.000000	75.516	10.6320
3700.000000	75.727	10.0994
3750.000000	75.959	9.3267
3820.000000	76.311	7.7475
3870.000000	76.570	6.2063
3950.000000	76.973	2.8914
4000.000000	77.207	0.2068
4060.000000	77.448	-3.7009
4120.000000	77.616	-8.3205
4180.000000	77.689	-13.5714
4250.000000	77.623	-20.2456
4310.000000	77.417	-26.0991
4370.000000	77.072	-31.7203
4440.000000	76.511	-37.6170
4500.000000	75.916	-41.8715
4550.000000	75.359	-44.7840
4620.000000	74.524	-47.9371
4680.000000	73.790	-49.8543
4750.000000	72.945	-51.3087
4820.000000	72.120	-52.0355
4870.000000	71.544	-52.1641
4940.000000	70.770	-51.9090
5000.000000	70.140	-51.3489
5080.000000	69.340	-50.2041
5150.000000	68.678	-48.8905
5220.000000	68.050	-47.3191
5300.000000	67.370	-45.2562
5380.000000	66.739	-42.9433
5450.000000	66.231	-40.7836
5520.000000	65.753	-38.4546
5600.000000	65.230	-35.5232
5700.000000	64.641	-31.2051
5800.000000	64.321	-26.6279
5900.000000	64.094	-23.9297
6000.000000	63.685	-21.0383
6080.000000	63.361	-18.2054
6150.000000	63.107	-15.5666
6220.000000	62.888	-12.8625
6300.000000	62.693	-9.7442
6400.000000	62.549	-5.7640
6500.000000	62.464	-1.7689
6600.000000	62.421	2.2663
6700.000000	62.436	6.2464
6800.000000	62.503	10.1845
6900.000000	62.607	14.1268
7000.000000	62.743	18.0342
7100.000000	62.935	21.8666
7200.000000	63.194	25.5586
7300.000000	63.507	29.0830
7400.000000	63.863	32.4369
7500.000000	64.255	35.6069
7620.000000	64.803	39.1236
7750.000000	65.516	42.4077
7880.000000	66.336	45.0065
8000.000000	67.140	46.5963
8120.000000	67.927	47.1933
8250.000000	68.816	46.3215
8380.000000	69.700	43.5407
8500.000000	70.407	39.0558
8620.000000	70.863	33.0172
8750.000000	70.976	25.5596
8850.000000	70.789	20.0363
9000.000000	70.161	13.4173
9120.000000	69.492	10.0663
9250.000000	68.730	8.3142
9380.000000	68.019	8.1737
9500.000000	67.454	9.1361
9620.000000	67.003	10.8710
9750.000000	66.679	13.3063
9880.000000	66.524	16.1377
10000.000000	66.552	18.8571
10150.000000	66.863	22.1226
10300.000000	67.462	24.7292
10440.000000	68.279	25.9440
10600.000000	69.472	24.7010
10750.000000	70.644	19.7216
10900.000000	71.530	10.5404
11060.000000	71.826	-2.2066
11200.000000	71.479	-13.3537
11380.000000	70.400	-25.2092
11500.000000	69.420	-31.0981
11720.000000	67.363	-37.3834
11800.000000	66.598	-38.2989
12060.000000	64.319	-37.4539
12200.000000	63.293	-35.3535
12410.000000	62.033	-31.1454
12500.000000	61.574	-29.1103
12650.000000	60.895	-25.5510
12800.000000	60.338	-21.8913
13150.000000	59.585	-13.4941
13200.000000	59.542	-12.4036
13400.000000	59.527	-8.6456
13600.000000	59.781	-6.4562
13800.000000	60.251	-6.8992
14000.000000	60.759	-11.3995
14300.000000	60.703	-26.5583
14500.000000	59.550	-38.4012
14750.000000	57.027	-47.9891
15000.000000	54.157	-50.1629
15250.000000	51.515	-47.3796
15500.000000	49.243	-41.7273
15750.000000	47.324	-34.5286
16000.000000	45.732	-26.1556
16250.000000	44.677	-16.8013
16500.000000	44.016	-7.4217
16750.000000	43.562	1.9433
17000.000000	43.345	11.3183
17250.000000	43.328	20.3795
17500.000000	43.542	28.5133
17750.000000	43.905	35.7911
18000.000000	44.456	41.5906
18250.000000	45.139	44.9348
18500.000000	45.756	45.1217
18750.000000	45.986	41.5958
19000.000000	45.510	36.1633
19250.000000	44.292	32.2237
19500.000000	42.422	31.2791
19750.000000	40.292	34.1773
