* Measurement data measured by REW V5.20.13
* Source: C:\Users\marcu\OneDrive\Desktop\Fix\ n.Gray f.Red Foam L.txt
* Format: Comma/Tab/Space delimited data
* Dated: Jul 26, 2023 5:56:58 PM
* REW Settings:
*  C-weighting compensation: Off
*  Target level: 75.0 dB
* Note: ; Measurement imported from C:\Users\marcu\OneDrive\Desktop\Fix\ n.Gray f.Red Foam L.txt Format: Comma/Tab/Space delimited data 54613 values loaded, 0 Hz to 20,000 Hz 
* Measurement:  n.Gray f.Red Foam L
* Smoothing: None
* Frequency Step: 1/48 octave
* Start Frequency: 1.000 Hz
*
* Freq(Hz)	SPL(dB)	Phase(degrees)
1.000000	65.891	-151.4085
1.015000	65.948	-152.9153
1.030000	66.003	-154.4176
1.044000	66.053	-155.8167
1.060000	66.107	-157.4135
1.075000	66.156	-158.9096
1.090000	66.202	-160.4061
1.106000	66.250	-162.0027
1.120000	66.289	-163.3922
1.138000	66.337	-165.1660
1.150000	66.367	-166.3411
1.172000	66.420	-168.4801
1.180000	66.437	-169.2533
1.206000	66.491	-171.7495
1.220000	66.517	-173.0835
1.241000	66.553	-175.0721
1.250000	66.567	-175.9199
1.265000	66.589	-177.3273
1.280000	66.609	-178.7279
1.315000	66.646	178.0285
1.320000	66.651	177.5678
1.340000	66.666	175.7310
1.360000	66.677	173.9034
1.380000	66.685	172.0844
1.400000	66.688	170.2731
1.430000	66.686	167.5692
1.450000	66.680	165.7740
1.475000	66.667	163.5377
1.500000	66.649	161.3120
1.525000	66.627	159.0983
1.550000	66.600	156.8973
1.575000	66.567	154.7096
1.600000	66.528	152.5358
1.625000	66.484	150.3767
1.650000	66.432	148.2329
1.675000	66.373	146.1051
1.700000	66.307	143.9939
1.725000	66.234	141.9000
1.750000	66.152	139.8240
1.775000	66.061	137.7667
1.800000	65.961	135.7286
1.825000	65.852	133.7105
1.850000	65.736	131.7026
1.875000	65.618	129.6844
1.900000	65.496	127.6617
1.925000	65.371	125.6415
1.950000	65.239	123.6309
1.975000	65.099	121.6370
2.000000	64.950	119.6667
2.030000	64.757	117.3437
2.060000	64.545	115.0771
2.090000	64.312	112.8791
2.120000	64.054	110.7619
2.140000	63.868	109.4012
2.180000	63.456	106.8185
2.200000	63.229	105.6011
2.240000	62.717	102.8031
2.270000	62.285	100.3640
2.300000	61.820	97.7809
2.330000	61.327	95.1868
2.360000	60.814	92.7148
2.400000	60.110	89.8386
2.430000	59.576	88.1689
2.470000	58.867	86.8456
2.500000	58.347	86.7028
2.540000	57.682	87.8981
2.580000	57.046	91.0322
2.620000	56.310	96.6845
2.650000	55.699	102.3316
2.690000	54.853	111.2493
2.720000	54.224	118.6452
2.760000	53.439	128.9612
2.800000	52.766	139.2380
2.850000	52.166	151.1002
2.900000	51.936	160.7580
2.950000	52.193	167.2221
3.000000	53.013	171.5933
3.040000	53.992	174.0141
3.070000	54.862	175.2933
3.110000	56.142	176.3953
3.150000	57.484	176.9351
3.200000	59.129	177.0313
3.250000	60.594	176.7386
3.300000	61.725	176.3247
3.350000	62.590	175.3694
3.400000	63.323	173.5945
3.450000	63.948	171.2120
3.500000	64.489	168.4341
3.550000	64.969	165.4727
3.600000	65.413	162.5401
3.650000	65.844	159.8481
3.700000	66.262	157.4257
3.750000	66.629	154.9553
3.820000	67.067	151.4457
3.870000	67.335	148.9439
3.950000	67.705	145.0344
4.000000	67.913	142.6969
4.060000	68.143	140.0261
4.120000	68.332	137.4146
4.180000	68.483	134.8750
4.250000	68.620	132.0446
4.310000	68.714	129.7679
4.370000	68.793	127.6619
4.440000	68.867	125.4355
4.500000	68.898	123.6789
4.550000	68.907	122.3273
4.620000	68.904	120.6216
4.680000	68.898	119.3462
4.750000	68.898	118.0939
4.820000	68.903	117.1359
4.870000	68.899	116.6399
4.940000	68.890	116.1572
5.000000	68.891	115.8933
5.080000	68.921	115.6786
5.150000	68.987	115.5629
5.220000	69.085	115.6549
5.300000	69.228	115.9596
5.380000	69.401	116.3162
5.450000	69.573	116.5388
5.520000	69.764	116.5785
5.600000	70.022	116.5267
5.700000	70.384	116.3311
5.800000	70.756	115.9168
5.900000	71.106	115.2039
6.000000	71.457	114.1650
6.080000	71.732	113.1650
6.150000	71.961	112.2165
6.220000	72.171	111.2400
6.300000	72.388	110.0602
6.400000	72.632	108.4415
6.500000	72.848	106.7780
6.600000	73.035	105.1928
6.700000	73.188	103.6632
6.800000	73.311	102.1658
6.900000	73.415	100.7686
7.000000	73.509	99.5325
7.100000	73.582	98.4387
7.200000	73.643	97.4675
7.300000	73.705	96.6086
7.400000	73.775	95.8752
7.500000	73.844	95.2831
7.620000	73.935	94.6650
7.750000	74.052	94.0059
7.880000	74.189	93.4169
8.000000	74.325	92.8571
8.120000	74.465	92.1943
8.250000	74.626	91.3948
8.380000	74.784	90.5150
8.500000	74.916	89.6170
8.620000	75.040	88.6301
8.750000	75.160	87.5244
8.850000	75.238	86.6787
9.000000	75.333	85.3780
9.120000	75.396	84.3669
9.250000	75.450	83.3468
9.380000	75.489	82.3809
9.500000	75.520	81.5487
9.620000	75.552	80.7884
9.750000	75.582	80.0370
9.880000	75.608	79.3244
10.000000	75.625	78.6964
10.150000	75.639	77.9520
10.300000	75.652	77.1914
10.440000	75.663	76.4667
10.600000	75.672	75.6171
10.750000	75.678	74.7825
10.900000	75.680	73.9232
11.060000	75.674	73.0070
11.200000	75.663	72.1999
11.380000	75.641	71.1894
11.500000	75.623	70.5409
11.720000	75.586	69.3965
11.800000	75.572	68.9979
12.060000	75.528	67.7523
12.200000	75.505	67.0938
12.410000	75.477	66.1197
12.500000	75.472	65.6983
12.650000	75.477	64.9914
12.800000	75.484	64.2849
13.150000	75.495	62.6457
13.200000	75.496	62.4183
13.400000	75.498	61.5265
13.600000	75.500	60.6722
13.800000	75.502	59.8627
14.000000	75.508	59.0780
14.300000	75.525	57.9327
14.500000	75.540	57.1635
14.750000	75.558	56.1919
15.000000	75.573	55.2119
15.250000	75.582	54.2515
15.500000	75.586	53.3371
15.750000	75.588	52.4794
16.000000	75.595	51.6817
16.250000	75.612	50.9157
16.500000	75.638	50.1647
16.750000	75.665	49.4041
17.000000	75.691	48.6324
17.250000	75.713	47.8588
17.500000	75.729	47.0980
17.750000	75.743	46.3684
18.000000	75.755	45.6701
18.250000	75.767	45.0019
18.500000	75.781	44.3460
18.750000	75.796	43.6939
19.000000	75.811	43.0382
19.250000	75.824	42.3814
19.500000	75.835	41.7318
19.750000	75.844	41.0948
20.000000	75.854	40.4754
20.299999	75.868	39.7477
20.600000	75.884	39.0283
20.900000	75.899	38.3090
21.200001	75.914	37.5898
21.400000	75.923	37.1166
21.799999	75.938	36.1948
22.000000	75.946	35.7479
22.400000	75.964	34.8756
22.700001	75.978	34.2285
23.000000	75.991	33.5803
23.299999	76.003	32.9371
23.600000	76.013	32.3084
24.000000	76.023	31.5034
24.299999	76.032	30.9221
24.700001	76.044	30.1614
25.000000	76.054	29.5913
25.400000	76.065	28.8314
25.799999	76.072	28.0860
26.200001	76.077	27.3658
26.500000	76.081	26.8389
26.900000	76.086	26.1436
27.200001	76.089	25.6226
27.600000	76.093	24.9302
28.000000	76.094	24.2472
28.500000	76.096	23.4084
29.000000	76.097	22.5761
29.500000	76.097	21.7509
30.000000	76.096	20.9457
30.400000	76.095	20.3170
30.700001	76.096	19.8497
31.100000	76.096	19.2286
31.500000	76.095	18.6132
32.000000	76.092	17.8644
32.500000	76.090	17.1415
33.000000	76.087	16.4319
33.500000	76.084	15.7297
34.000000	76.079	15.0425
34.500000	76.072	14.3745
35.000000	76.066	13.7179
35.500000	76.059	13.0673
36.000000	76.050	12.4277
36.500000	76.041	11.8019
37.000000	76.032	11.1846
37.500000	76.022	10.5729
38.200001	76.006	9.7349
38.700001	75.996	9.1486
39.500000	75.979	8.2198
40.000000	75.967	7.6515
40.599998	75.954	6.9890
41.200001	75.941	6.3418
41.799999	75.927	5.7080
42.500000	75.911	4.9900
43.099998	75.897	4.3866
43.700001	75.882	3.7912
44.400002	75.864	3.1152
45.000000	75.847	2.5507
45.500000	75.835	2.0853
46.200001	75.815	1.4426
46.799999	75.797	0.9033
47.500000	75.776	0.2883
48.200001	75.755	-0.3081
48.700001	75.740	-0.7260
49.400002	75.719	-1.3064
50.000000	75.700	-1.7951
50.799999	75.674	-2.4269
51.500000	75.652	-2.9695
52.200001	75.629	-3.4999
53.000000	75.602	-4.0836
53.799999	75.577	-4.6527
54.500000	75.554	-5.1424
55.200001	75.531	-5.6233
56.000000	75.504	-6.1604
57.000000	75.469	-6.8071
58.000000	75.433	-7.4329
59.000000	75.399	-8.0475
60.000000	75.362	-8.6501
60.799999	75.332	-9.1198
61.500000	75.306	-9.5209
62.200001	75.279	-9.9091
63.000000	75.249	-10.3408
64.000000	75.210	-10.8750
65.000000	75.170	-11.3923
66.000000	75.129	-11.8915
67.000000	75.088	-12.3767
68.000000	75.047	-12.8485
69.000000	75.005	-13.3107
70.000000	74.963	-13.7604
71.000000	74.921	-14.1926
72.000000	74.879	-14.6157
73.000000	74.838	-15.0306
74.000000	74.795	-15.4345
75.000000	74.753	-15.8260
76.199997	74.702	-16.2831
77.500000	74.646	-16.7706
78.800003	74.589	-17.2251
80.000000	74.540	-17.6417
81.199997	74.489	-18.0481
82.500000	74.435	-18.4703
83.800003	74.380	-18.8773
85.000000	74.330	-19.2429
86.199997	74.280	-19.6003
87.500000	74.226	-19.9780
88.500000	74.183	-20.2592
90.000000	74.121	-20.6615
91.199997	74.070	-20.9770
92.500000	74.015	-21.3068
93.800003	73.962	-21.6257
95.000000	73.912	-21.9200
96.199997	73.862	-22.1959
97.500000	73.807	-22.4807
98.800003	73.755	-22.7630
100.000000	73.705	-23.0171
101.500000	73.644	-23.3270
103.000000	73.582	-23.6216
104.400002	73.526	-23.8862
106.000000	73.462	-24.1769
107.500000	73.402	-24.4425
109.000000	73.341	-24.6982
110.599998	73.279	-24.9569
112.000000	73.223	-25.1862
113.800003	73.153	-25.4547
115.000000	73.106	-25.6337
117.199997	73.020	-25.9406
118.000000	72.989	-26.0475
120.599998	72.888	-26.3884
122.000000	72.834	-26.5521
124.099998	72.756	-26.7941
125.000000	72.723	-26.8956
126.500000	72.671	-27.0662
128.000000	72.619	-27.2201
131.500000	72.503	-27.5522
132.000000	72.487	-27.5977
134.000000	72.421	-27.7767
136.000000	72.357	-27.9467
138.000000	72.292	-28.1082
140.000000	72.229	-28.2568
143.000000	72.135	-28.4687
145.000000	72.073	-28.5974
147.500000	71.996	-28.7404
150.000000	71.919	-28.8748
152.500000	71.844	-29.0058
155.000000	71.769	-29.1266
157.500000	71.697	-29.2291
160.000000	71.623	-29.3163
162.500000	71.540	-29.3901
165.000000	71.456	-29.4608
167.500000	71.372	-29.5243
170.000000	71.290	-29.5850
172.500000	71.210	-29.6285
175.000000	71.130	-29.6538
177.500000	71.049	-29.6783
180.000000	70.970	-29.6986
182.500000	70.893	-29.7120
185.000000	70.816	-29.7220
187.500000	70.740	-29.7219
190.000000	70.665	-29.7117
192.500000	70.591	-29.6943
195.000000	70.519	-29.6680
197.500000	70.448	-29.6459
200.000000	70.377	-29.6135
203.000000	70.298	-29.5638
206.000000	70.223	-29.5121
209.000000	70.149	-29.4503
212.000000	70.073	-29.3735
214.000000	70.024	-29.3204
218.000000	69.928	-29.2131
220.000000	69.880	-29.1587
224.000000	69.789	-29.0421
227.000000	69.720	-28.9430
230.000000	69.653	-28.8302
233.000000	69.587	-28.7192
236.000000	69.523	-28.6018
240.000000	69.436	-28.4420
243.000000	69.373	-28.3143
247.000000	69.291	-28.1440
250.000000	69.231	-28.0038
254.000000	69.152	-27.8060
258.000000	69.074	-27.6049
262.000000	69.000	-27.4028
265.000000	68.944	-27.2426
269.000000	68.873	-27.0242
272.000000	68.820	-26.8575
276.000000	68.750	-26.6351
280.000000	68.681	-26.4025
285.000000	68.599	-26.1066
290.000000	68.519	-25.8009
295.000000	68.440	-25.4873
300.000000	68.365	-25.1758
304.000000	68.304	-24.9230
307.000000	68.258	-24.7270
311.000000	68.202	-24.4484
315.000000	68.146	-24.1688
320.000000	68.077	-23.8354
325.000000	68.011	-23.4891
330.000000	67.944	-23.1382
335.000000	67.880	-22.7887
340.000000	67.819	-22.4514
345.000000	67.759	-22.1082
350.000000	67.698	-21.7551
355.000000	67.641	-21.3998
360.000000	67.585	-21.0410
365.000000	67.527	-20.6790
370.000000	67.474	-20.3069
375.000000	67.423	-19.9494
382.000000	67.350	-19.4315
387.000000	67.301	-19.0660
395.000000	67.223	-18.4821
400.000000	67.176	-18.1060
406.000000	67.122	-17.6589
412.000000	67.070	-17.2191
418.000000	67.019	-16.7651
425.000000	66.957	-16.2360
431.000000	66.906	-15.7740
437.000000	66.857	-15.3060
444.000000	66.806	-14.7747
450.000000	66.762	-14.3082
455.000000	66.725	-13.9127
462.000000	66.674	-13.3650
468.000000	66.632	-12.8821
475.000000	66.585	-12.3312
482.000000	66.542	-11.7653
487.000000	66.511	-11.3677
494.000000	66.470	-10.8062
500.000000	66.435	-10.3152
508.000000	66.393	-9.6653
515.000000	66.359	-9.0864
522.000000	66.323	-8.5106
530.000000	66.287	-7.8427
538.000000	66.253	-7.1718
545.000000	66.225	-6.5934
552.000000	66.198	-6.0120
560.000000	66.169	-5.3489
570.000000	66.135	-4.5253
580.000000	66.104	-3.6909
590.000000	66.078	-2.8590
600.000000	66.055	-2.0111
608.000000	66.037	-1.3411
615.000000	66.024	-0.7534
622.000000	66.010	-0.1676
630.000000	65.997	0.4960
640.000000	65.982	1.3345
650.000000	65.969	2.1711
660.000000	65.960	3.0101
670.000000	65.952	3.8449
680.000000	65.944	4.6749
690.000000	65.936	5.5254
700.000000	65.931	6.4125
710.000000	65.931	7.3418
720.000000	65.943	8.2892
730.000000	65.965	9.1802
740.000000	65.992	10.0294
750.000000	66.020	10.8582
762.000000	66.052	11.8192
775.000000	66.088	12.8365
788.000000	66.126	13.8510
800.000000	66.162	14.8005
812.000000	66.193	15.7352
825.000000	66.226	16.7257
838.000000	66.264	17.7106
850.000000	66.303	18.6189
862.000000	66.342	19.5068
875.000000	66.389	20.4453
885.000000	66.427	21.1696
900.000000	66.486	22.2368
912.000000	66.537	23.0886
925.000000	66.594	24.0131
938.000000	66.654	24.9186
950.000000	66.711	25.7313
962.000000	66.771	26.5359
975.000000	66.840	27.4102
988.000000	66.915	28.2597
1000.000000	66.988	29.0330
1015.000000	67.091	29.9688
1030.000000	67.200	30.8705
1044.000000	67.305	31.6874
1060.000000	67.428	32.5814
1075.000000	67.547	33.3881
1090.000000	67.668	34.1681
1106.000000	67.797	34.9516
1120.000000	67.911	35.6021
1138.000000	68.057	36.4143
1150.000000	68.154	36.9358
1172.000000	68.330	37.8372
1180.000000	68.395	38.1508
1206.000000	68.600	39.1490
1220.000000	68.709	39.6523
1241.000000	68.870	40.3984
1250.000000	68.934	40.7045
1265.000000	69.029	41.2095
1280.000000	69.117	41.7065
1315.000000	69.317	42.8171
1320.000000	69.345	42.9764
1340.000000	69.460	43.6021
1360.000000	69.576	44.2101
1380.000000	69.691	44.8043
1400.000000	69.807	45.3918
1430.000000	69.980	46.2596
1450.000000	70.098	46.8222
1475.000000	70.246	47.5061
1500.000000	70.398	48.1776
1525.000000	70.552	48.8160
1550.000000	70.710	49.4392
1575.000000	70.871	50.0447
1600.000000	71.042	50.6089
1625.000000	71.241	51.1428
1650.000000	71.450	51.6456
1675.000000	71.662	52.1093
1700.000000	71.878	52.5305
1725.000000	72.097	52.9056
1750.000000	72.318	53.2308
1775.000000	72.541	53.5110
1800.000000	72.768	53.7295
1825.000000	72.994	53.8842
1850.000000	73.223	53.9767
1875.000000	73.452	54.0054
1900.000000	73.682	53.9536
1925.000000	73.911	53.8248
1950.000000	74.138	53.6181
1975.000000	74.362	53.3226
2000.000000	74.582	52.9321
2030.000000	74.830	52.3475
2060.000000	75.069	51.6256
2090.000000	75.297	50.7565
2120.000000	75.515	49.7409
2140.000000	75.652	48.9839
2180.000000	75.908	47.2868
2200.000000	76.026	46.3413
2240.000000	76.242	44.2793
2270.000000	76.388	42.5890
2300.000000	76.519	40.7957
2330.000000	76.635	38.9148
2360.000000	76.736	36.9641
2400.000000	76.845	34.2957
2430.000000	76.905	32.2796
2470.000000	76.958	29.6210
2500.000000	76.975	27.6816
2540.000000	76.969	25.2067
2580.000000	76.934	22.8923
2620.000000	76.877	20.7606
2650.000000	76.822	19.2982
2690.000000	76.736	17.5364
2720.000000	76.664	16.3533
2760.000000	76.562	14.9614
2800.000000	76.457	13.7712
2850.000000	76.326	12.5471
2900.000000	76.201	11.5772
2950.000000	76.085	10.8439
3000.000000	75.984	10.3042
3040.000000	75.915	9.9855
3070.000000	75.871	9.8083
3110.000000	75.823	9.6364
3150.000000	75.788	9.5263
3200.000000	75.762	9.4500
3250.000000	75.757	9.4274
3300.000000	75.774	9.4205
3350.000000	75.815	9.4114
3400.000000	75.877	9.3740
3450.000000	75.961	9.2860
3500.000000	76.066	9.1189
3550.000000	76.192	8.8461
3600.000000	76.335	8.4420
3650.000000	76.496	7.8689
3700.000000	76.673	7.0989
3750.000000	76.860	6.0894
3820.000000	77.135	4.2078
3870.000000	77.335	2.4760
3950.000000	77.641	-1.0688
4000.000000	77.811	-3.8143
4060.000000	77.973	-7.6484
4120.000000	78.075	-12.0414
4180.000000	78.104	-16.8938
4250.000000	78.024	-22.8901
4310.000000	77.847	-28.0375
4370.000000	77.569	-32.9182
4440.000000	77.121	-37.9949
4500.000000	76.644	-41.6711
4550.000000	76.193	-44.2211
4620.000000	75.499	-47.0222
4680.000000	74.866	-48.7509
4750.000000	74.105	-50.0747
4820.000000	73.340	-50.7555
4870.000000	72.799	-50.9024
4940.000000	72.061	-50.7079
5000.000000	71.447	-50.2145
5080.000000	70.654	-49.1674
5150.000000	69.995	-47.9464
5220.000000	69.374	-46.4911
5300.000000	68.707	-44.5777
5380.000000	68.089	-42.4338
5450.000000	67.584	-40.4182
5520.000000	67.107	-38.2914
5600.000000	66.598	-35.7115
5700.000000	66.006	-32.2754
5800.000000	65.462	-28.5801
5900.000000	64.967	-24.5348
6000.000000	64.543	-19.9479
6080.000000	64.321	-15.8202
6150.000000	64.286	-12.3838
6220.000000	64.335	-9.9870
6300.000000	64.291	-8.2367
6400.000000	64.126	-5.6243
6500.000000	63.982	-2.2883
6600.000000	63.896	1.3535
6700.000000	63.869	5.0944
6800.000000	63.897	8.8577
6900.000000	63.975	12.6063
7000.000000	64.106	16.3617
7100.000000	64.291	20.0404
7200.000000	64.534	23.5835
7300.000000	64.829	26.9502
7400.000000	65.172	30.1321
7500.000000	65.566	33.0986
7620.000000	66.117	36.3382
7750.000000	66.801	39.3254
7880.000000	67.581	41.5950
8000.000000	68.355	42.8528
8120.000000	69.105	43.0775
8250.000000	69.922	41.8582
8380.000000	70.687	38.8445
8500.000000	71.246	34.4165
8620.000000	71.566	28.7393
8750.000000	71.567	22.0696
8850.000000	71.322	17.3081
9000.000000	70.652	11.8120
9120.000000	69.978	9.1810
9250.000000	69.225	8.0458
9380.000000	68.527	8.3802
9500.000000	67.973	9.6949
9620.000000	67.528	11.7200
9750.000000	67.184	14.4988
9880.000000	66.993	17.6974
10000.000000	66.978	20.8589
10150.000000	67.228	24.8259
10300.000000	67.764	28.4224
10440.000000	68.523	30.9019
10600.000000	69.674	31.7724
10750.000000	70.914	29.6264
10900.000000	72.093	23.8764
11060.000000	73.012	13.9318
11200.000000	73.370	2.9477
11380.000000	73.093	-12.1102
11500.000000	72.453	-21.2114
11720.000000	70.585	-33.1462
11800.000000	69.787	-35.7477
12060.000000	67.202	-38.8540
12200.000000	65.947	-38.0501
12410.000000	64.329	-34.8180
12500.000000	63.731	-32.9329
12650.000000	62.851	-29.3632
12800.000000	62.127	-25.4686
13150.000000	61.040	-16.1943
13200.000000	60.952	-14.9282
13400.000000	60.771	-10.3168
13600.000000	60.864	-6.8724
13800.000000	61.208	-5.3929
14000.000000	61.711	-7.0570
14300.000000	62.162	-17.6381
14500.000000	61.636	-28.8907
14750.000000	59.745	-41.1387
15000.000000	57.092	-46.6509
15250.000000	54.426	-46.1398
15500.000000	52.066	-41.8839
15750.000000	50.057	-35.4086
16000.000000	48.435	-27.5781
16250.000000	47.324	-18.7087
16500.000000	46.689	-9.2240
16750.000000	46.339	-1.1244
17000.000000	46.060	7.0283
17250.000000	46.010	15.2332
17500.000000	46.174	22.8551
17750.000000	46.555	29.3338
18000.000000	47.114	34.1883
18250.000000	47.747	36.2291
18500.000000	48.212	34.8793
18750.000000	48.197	30.3184
19000.000000	47.419	24.7574
19250.000000	45.908	21.3281
19500.000000	43.971	22.0308
19750.000000	41.938	25.9295
