* Measurement data measured by REW V5.20.13
* Source: EXCL: Microphone (USB Sound Device        ), MICROPHONE (Master Volume), R, volume: 0.250
* Format: 256k Log Swept Sine, 1 sweep at -6.0 dBFS with no timing reference
* Dated: Sep 17, 2023 8:32:47 AM
* REW Settings:
*  C-weighting compensation: Off
*  Target level: 75.0 dB
* Note: ; 
* Measurement: n.Gold f.Blue Foam R
* Smoothing: None
* Frequency Step: 1/48 octave
* Start Frequency: 1.000 Hz
*
* Freq(Hz)	SPL(dB)	Phase(degrees)
1.000000	69.179	-118.2796
1.015000	69.129	-120.3924
1.030000	69.081	-122.5044
1.044000	69.039	-124.4738
1.060000	68.994	-126.7211
1.075000	68.956	-128.8234
1.090000	68.921	-130.9200
1.106000	68.887	-133.1521
1.120000	68.861	-135.1192
1.138000	68.830	-137.6699
1.150000	68.812	-139.3822
1.172000	68.783	-142.5417
1.180000	68.774	-143.6960
1.206000	68.749	-147.4622
1.220000	68.738	-149.4965
1.241000	68.724	-152.5513
1.250000	68.719	-153.8604
1.265000	68.713	-156.0405
1.280000	68.708	-158.2163
1.315000	68.702	-163.2645
1.320000	68.702	-163.9812
1.340000	68.701	-166.8335
1.360000	68.703	-169.6587
1.380000	68.706	-172.4515
1.400000	68.709	-175.2068
1.430000	68.716	-179.2578
1.450000	68.721	178.1038
1.475000	68.728	174.8800
1.500000	68.741	171.7018
1.525000	68.762	168.5609
1.550000	68.789	165.4590
1.575000	68.820	162.3980
1.600000	68.854	159.3797
1.625000	68.890	156.4058
1.650000	68.927	153.4781
1.675000	68.962	150.5983
1.700000	68.995	147.7682
1.725000	69.024	144.9897
1.750000	69.048	142.2644
1.775000	69.065	139.5942
1.800000	69.074	136.9808
1.825000	69.074	134.4260
1.850000	69.067	131.9272
1.875000	69.058	129.4756
1.900000	69.048	127.0721
1.925000	69.036	124.7180
1.950000	69.021	122.4144
1.975000	69.001	120.1630
2.000000	68.976	117.9647
2.030000	68.938	115.3990
2.060000	68.890	112.9142
2.090000	68.830	110.5125
2.120000	68.757	108.1961
2.140000	68.700	106.7004
2.180000	68.563	103.8285
2.200000	68.484	102.4531
2.240000	68.305	99.7105
2.270000	68.155	97.6562
2.300000	67.992	95.6371
2.330000	67.817	93.6831
2.360000	67.629	91.8240
2.400000	67.360	89.5441
2.430000	67.143	88.0220
2.470000	66.836	86.2996
2.500000	66.592	85.2767
2.540000	66.249	84.3279
2.580000	65.877	83.9031
2.620000	65.414	83.9129
2.650000	65.015	84.1788
2.690000	64.441	84.8647
2.720000	63.996	85.6183
2.760000	63.414	86.9289
2.800000	62.873	88.5735
2.850000	62.307	91.0734
2.900000	61.925	94.0364
2.950000	61.787	97.5305
3.000000	61.859	102.2759
3.040000	62.039	106.8165
3.070000	62.232	110.4904
3.110000	62.553	115.5448
3.150000	62.928	120.5461
3.200000	63.446	126.3384
3.250000	63.985	131.1606
3.300000	64.509	134.5226
3.350000	65.079	136.4841
3.400000	65.733	137.4563
3.450000	66.438	137.6431
3.500000	67.162	137.2484
3.550000	67.872	136.4760
3.600000	68.535	135.5298
3.650000	69.119	134.6136
3.700000	69.614	133.7207
3.750000	70.059	132.4916
3.820000	70.610	130.3326
3.870000	70.959	128.5923
3.950000	71.454	125.6981
4.000000	71.731	123.9524
4.060000	72.034	122.0042
4.120000	72.289	120.0082
4.180000	72.500	117.9737
4.250000	72.700	115.6211
4.310000	72.839	113.6826
4.370000	72.957	111.8714
4.440000	73.069	109.9400
4.500000	73.126	108.3568
4.550000	73.152	107.1024
4.620000	73.165	105.4789
4.680000	73.162	104.2422
4.750000	73.155	103.0204
4.820000	73.138	102.0605
4.870000	73.109	101.5183
4.940000	73.056	100.9402
5.000000	73.010	100.5954
5.080000	72.967	100.3231
5.150000	72.962	100.2456
5.220000	72.973	100.4286
5.300000	73.003	100.8877
5.380000	73.057	101.4597
5.450000	73.132	101.9269
5.520000	73.236	102.2726
5.600000	73.400	102.6767
5.700000	73.652	103.1542
5.800000	73.927	103.4340
5.900000	74.200	103.3505
6.000000	74.493	102.9283
6.080000	74.734	102.4065
6.150000	74.936	101.8481
6.220000	75.121	101.2215
6.300000	75.311	100.3872
6.400000	75.530	99.1378
6.500000	75.724	97.7864
6.600000	75.887	96.4695
6.700000	76.014	95.1526
6.800000	76.111	93.8166
6.900000	76.187	92.5556
7.000000	76.248	91.4515
7.100000	76.286	90.4658
7.200000	76.309	89.5916
7.300000	76.332	88.8407
7.400000	76.363	88.2389
7.500000	76.391	87.7896
7.620000	76.433	87.3604
7.750000	76.505	86.9343
7.880000	76.602	86.6143
8.000000	76.707	86.3111
8.120000	76.823	85.8933
8.250000	76.968	85.3584
8.380000	77.115	84.7262
8.500000	77.240	84.0261
8.620000	77.363	83.2129
8.750000	77.484	82.2732
8.850000	77.563	81.5401
9.000000	77.661	80.3793
9.120000	77.726	79.4691
9.250000	77.782	78.5555
9.380000	77.823	77.6881
9.500000	77.856	76.9501
9.620000	77.890	76.2928
9.750000	77.923	75.6585
9.880000	77.951	75.0701
10.000000	77.971	74.5654
10.150000	77.988	73.9840
10.300000	78.006	73.3880
10.440000	78.024	72.8193
10.600000	78.043	72.1468
10.750000	78.060	71.4725
10.900000	78.075	70.7701
11.060000	78.083	70.0186
11.200000	78.083	69.3525
11.380000	78.078	68.5237
11.500000	78.069	67.9977
11.720000	78.050	67.0798
11.800000	78.043	66.7646
12.060000	78.021	65.7920
12.200000	78.010	65.2790
12.410000	77.998	64.5204
12.500000	77.999	64.1887
12.650000	78.011	63.6281
12.800000	78.026	63.0642
13.150000	78.048	61.7433
13.200000	78.050	61.5603
13.400000	78.055	60.8440
13.600000	78.058	60.1609
13.800000	78.063	59.5190
14.000000	78.071	58.8929
14.300000	78.091	57.9651
14.500000	78.109	57.3214
14.750000	78.130	56.4850
15.000000	78.148	55.6171
15.250000	78.157	54.7528
15.500000	78.162	53.9251
15.750000	78.165	53.1476
16.000000	78.174	52.4256
16.250000	78.194	51.7265
16.500000	78.225	51.0314
16.750000	78.259	50.3121
17.000000	78.291	49.5700
17.250000	78.321	48.8174
17.500000	78.346	48.0742
17.750000	78.368	47.3651
18.000000	78.390	46.6909
18.250000	78.412	46.0516
18.500000	78.438	45.4268
18.750000	78.466	44.8070
19.000000	78.493	44.1836
19.250000	78.519	43.5599
19.500000	78.543	42.9448
19.750000	78.564	42.3446
20.000000	78.585	41.7641
20.299999	78.611	41.0839
20.600000	78.638	40.4112
20.900000	78.663	39.7365
21.200001	78.686	39.0612
21.400000	78.698	38.6178
21.799999	78.721	37.7562
22.000000	78.731	37.3379
22.400000	78.754	36.5121
22.700001	78.773	35.8837
23.000000	78.789	35.2378
23.299999	78.803	34.5838
23.600000	78.813	33.9361
24.000000	78.823	33.0994
24.299999	78.832	32.4902
24.700001	78.846	31.6821
25.000000	78.858	31.0652
25.400000	78.873	30.2277
25.799999	78.883	29.3942
26.200001	78.892	28.5842
26.500000	78.899	27.9913
26.900000	78.909	27.2099
27.200001	78.916	26.6250
27.600000	78.925	25.8485
28.000000	78.933	25.0831
28.500000	78.942	24.1414
29.000000	78.949	23.2042
29.500000	78.952	22.2758
30.000000	78.953	21.3735
30.400000	78.954	20.6672
30.700001	78.955	20.1370
31.100000	78.956	19.4212
31.500000	78.955	18.7012
32.000000	78.949	17.8170
32.500000	78.943	16.9583
33.000000	78.939	16.1052
33.500000	78.935	15.2449
34.000000	78.928	14.3904
34.500000	78.920	13.5554
35.000000	78.913	12.7344
35.500000	78.905	11.9205
36.000000	78.896	11.1190
36.500000	78.887	10.3336
37.000000	78.877	9.5590
37.500000	78.865	8.7930
38.200001	78.847	7.7461
38.700001	78.834	7.0127
39.500000	78.811	5.8453
40.000000	78.794	5.1322
40.599998	78.776	4.3010
41.200001	78.759	3.4776
41.799999	78.740	2.6577
42.500000	78.716	1.7273
43.099998	78.695	0.9517
43.700001	78.674	0.1883
44.400002	78.649	-0.6793
45.000000	78.627	-1.4046
45.500000	78.608	-2.0005
46.200001	78.580	-2.8144
46.799999	78.556	-3.4917
47.500000	78.528	-4.2688
48.200001	78.498	-5.0248
48.700001	78.477	-5.5500
49.400002	78.447	-6.2762
50.000000	78.420	-6.8866
50.799999	78.384	-7.6683
51.500000	78.353	-8.3344
52.200001	78.322	-8.9875
53.000000	78.285	-9.7087
53.799999	78.248	-10.4091
54.500000	78.215	-11.0061
55.200001	78.181	-11.5908
56.000000	78.141	-12.2384
57.000000	78.092	-13.0139
58.000000	78.043	-13.7748
59.000000	77.991	-14.4959
60.000000	77.942	-15.1906
60.799999	77.901	-15.7332
61.500000	77.865	-16.1984
62.200001	77.827	-16.6465
63.000000	77.784	-17.1373
64.000000	77.730	-17.7411
65.000000	77.674	-18.3234
66.000000	77.619	-18.8932
67.000000	77.563	-19.4399
68.000000	77.507	-19.9620
69.000000	77.452	-20.4764
70.000000	77.395	-20.9735
71.000000	77.338	-21.4418
72.000000	77.282	-21.9096
73.000000	77.224	-22.3553
74.000000	77.168	-22.7804
75.000000	77.112	-23.2043
76.199997	77.044	-23.6965
77.500000	76.970	-24.2040
78.800003	76.897	-24.6788
80.000000	76.831	-25.1125
81.199997	76.763	-25.5221
82.500000	76.691	-25.9507
83.800003	76.620	-26.3657
85.000000	76.553	-26.7363
86.199997	76.487	-27.0924
87.500000	76.417	-27.4739
88.500000	76.362	-27.7511
90.000000	76.281	-28.1604
91.199997	76.216	-28.4554
92.500000	76.148	-28.7690
93.800003	76.080	-29.0771
95.000000	76.015	-29.3488
96.199997	75.952	-29.6129
97.500000	75.884	-29.8880
98.800003	75.817	-30.1513
100.000000	75.756	-30.3938
101.500000	75.677	-30.6799
103.000000	75.602	-30.9249
104.400002	75.532	-31.1792
106.000000	75.452	-31.4246
107.500000	75.378	-31.6765
109.000000	75.303	-31.8850
110.599998	75.228	-32.1268
112.000000	75.157	-32.3214
113.800003	75.073	-32.5469
115.000000	75.014	-32.6938
117.199997	74.913	-32.9415
118.000000	74.875	-33.0281
120.599998	74.755	-33.3049
122.000000	74.691	-33.4423
124.099998	74.597	-33.6423
125.000000	74.556	-33.7125
126.500000	74.497	-33.8273
128.000000	74.437	-33.9563
131.500000	74.299	-34.1998
132.000000	74.280	-34.2366
134.000000	74.203	-34.3551
136.000000	74.127	-34.4681
138.000000	74.053	-34.5704
140.000000	73.977	-34.6597
143.000000	73.868	-34.7866
145.000000	73.795	-34.8574
147.500000	73.706	-34.9336
150.000000	73.621	-35.0189
152.500000	73.535	-35.0730
155.000000	73.450	-35.1093
157.500000	73.367	-35.1291
160.000000	73.285	-35.1636
162.500000	73.190	-35.1777
165.000000	73.098	-35.2068
167.500000	73.009	-35.1904
170.000000	72.917	-35.1774
172.500000	72.828	-35.1614
175.000000	72.740	-35.1399
177.500000	72.656	-35.0934
180.000000	72.573	-35.0511
182.500000	72.488	-35.0083
185.000000	72.409	-34.9580
187.500000	72.329	-34.8872
190.000000	72.248	-34.8361
192.500000	72.172	-34.7380
195.000000	72.093	-34.6882
197.500000	72.018	-34.5972
200.000000	71.946	-34.5040
203.000000	71.861	-34.4076
206.000000	71.784	-34.3140
209.000000	71.706	-34.1757
212.000000	71.630	-34.0424
214.000000	71.580	-33.9712
218.000000	71.481	-33.7845
220.000000	71.432	-33.6907
224.000000	71.339	-33.5098
227.000000	71.267	-33.3494
230.000000	71.198	-33.1962
233.000000	71.132	-33.0283
236.000000	71.066	-32.8900
240.000000	70.978	-32.6610
243.000000	70.915	-32.5004
247.000000	70.837	-32.2624
250.000000	70.774	-32.0850
254.000000	70.693	-31.8509
258.000000	70.617	-31.6348
262.000000	70.545	-31.3583
265.000000	70.492	-31.1664
269.000000	70.419	-30.9298
272.000000	70.365	-30.7101
276.000000	70.298	-30.4463
280.000000	70.231	-30.1772
285.000000	70.149	-29.8189
290.000000	70.069	-29.5227
295.000000	69.994	-29.1595
300.000000	69.916	-28.7821
304.000000	69.859	-28.5209
307.000000	69.818	-28.3264
311.000000	69.763	-28.0408
315.000000	69.706	-27.7476
320.000000	69.639	-27.3787
325.000000	69.572	-27.0283
330.000000	69.515	-26.6770
335.000000	69.454	-26.2974
340.000000	69.389	-25.9402
345.000000	69.331	-25.5845
350.000000	69.277	-25.1948
355.000000	69.223	-24.8376
360.000000	69.165	-24.4383
365.000000	69.111	-24.0996
370.000000	69.058	-23.7222
375.000000	69.014	-23.3478
382.000000	68.950	-22.8517
387.000000	68.899	-22.4827
395.000000	68.833	-21.8716
400.000000	68.789	-21.5004
406.000000	68.740	-21.0490
412.000000	68.693	-20.6101
418.000000	68.645	-20.1767
425.000000	68.597	-19.6055
431.000000	68.552	-19.1835
437.000000	68.518	-18.7505
444.000000	68.471	-18.2145
450.000000	68.433	-17.8140
455.000000	68.397	-17.4227
462.000000	68.366	-16.9257
468.000000	68.333	-16.4927
475.000000	68.297	-15.9916
482.000000	68.265	-15.4844
487.000000	68.241	-15.1548
494.000000	68.221	-14.6253
500.000000	68.193	-14.1956
508.000000	68.175	-13.6693
515.000000	68.138	-13.1806
522.000000	68.140	-12.5971
530.000000	68.112	-12.1514
538.000000	68.060	-11.2535
545.000000	68.111	-10.2983
552.000000	68.182	-9.9976
560.000000	68.196	-9.9838
570.000000	68.079	-9.6486
580.000000	67.930	-8.7068
590.000000	67.775	-7.4735
600.000000	67.634	-6.4957
608.000000	67.544	-6.0597
615.000000	67.517	-5.8829
622.000000	67.539	-5.6367
630.000000	67.561	-4.9846
640.000000	67.550	-4.1813
650.000000	67.570	-3.5775
660.000000	67.553	-2.7882
670.000000	67.568	-2.0643
680.000000	67.557	-1.3593
690.000000	67.569	-0.6616
700.000000	67.570	0.0630
710.000000	67.573	0.7769
720.000000	67.579	1.4500
730.000000	67.580	2.1591
740.000000	67.596	2.9083
750.000000	67.606	3.6195
762.000000	67.613	4.4698
775.000000	67.631	5.3634
788.000000	67.650	6.2880
800.000000	67.674	7.1237
812.000000	67.691	7.9783
825.000000	67.714	8.9031
838.000000	67.737	9.7604
850.000000	67.763	10.5564
862.000000	67.791	11.3699
875.000000	67.832	12.2270
885.000000	67.864	12.8599
900.000000	67.917	13.8395
912.000000	67.955	14.5956
925.000000	68.012	15.3735
938.000000	68.066	16.1564
950.000000	68.118	16.8900
962.000000	68.182	17.5359
975.000000	68.240	18.2498
988.000000	68.307	18.9092
1000.000000	68.360	19.5753
1015.000000	68.474	20.2192
1030.000000	68.569	20.9240
1044.000000	68.668	21.4785
1060.000000	68.777	22.1977
1075.000000	68.881	22.7296
1090.000000	68.983	23.2661
1106.000000	69.091	23.7963
1120.000000	69.186	24.1602
1138.000000	69.299	24.6843
1150.000000	69.382	25.0480
1172.000000	69.521	25.5854
1180.000000	69.566	25.8029
1206.000000	69.730	26.3889
1220.000000	69.812	26.6796
1241.000000	69.934	27.0693
1250.000000	69.985	27.2325
1265.000000	70.044	27.5515
1280.000000	70.101	27.7899
1315.000000	70.233	28.3662
1320.000000	70.248	28.4289
1340.000000	70.317	28.7386
1360.000000	70.385	29.0257
1380.000000	70.452	29.3041
1400.000000	70.515	29.5527
1430.000000	70.621	29.9154
1450.000000	70.690	30.0903
1475.000000	70.776	30.3084
1500.000000	70.845	30.6664
1525.000000	70.914	30.4970
1550.000000	70.990	30.8032
1575.000000	71.066	30.6805
1600.000000	71.023	31.1698
1625.000000	70.720	31.3028
1650.000000	70.982	27.4898
1675.000000	71.458	32.7291
1700.000000	70.929	33.1253
1725.000000	71.260	30.9832
1750.000000	71.454	33.2561
1775.000000	71.455	33.0693
1800.000000	71.611	33.6666
1825.000000	71.716	33.8545
1850.000000	71.832	34.0930
1875.000000	71.937	34.3463
1900.000000	72.043	34.5157
1925.000000	72.152	34.6762
1950.000000	72.252	34.7892
1975.000000	72.357	34.9301
2000.000000	72.449	35.1105
2030.000000	72.574	35.1327
2060.000000	72.686	35.2032
2090.000000	72.794	35.2776
2120.000000	72.901	35.3323
2140.000000	72.974	35.2980
2180.000000	73.117	35.3081
2200.000000	73.186	35.2764
2240.000000	73.329	35.2162
2270.000000	73.436	35.1587
2300.000000	73.538	35.0468
2330.000000	73.642	34.9056
2360.000000	73.747	34.7473
2400.000000	73.874	34.4836
2430.000000	73.969	34.2315
2470.000000	74.091	33.9125
2500.000000	74.183	33.5946
2540.000000	74.290	33.2084
2580.000000	74.397	32.7451
2620.000000	74.497	32.2363
2650.000000	74.574	31.8108
2690.000000	74.654	31.2412
2720.000000	74.715	30.8037
2760.000000	74.777	30.1767
2800.000000	74.828	29.5934
2850.000000	74.867	28.9411
2900.000000	74.893	28.4277
2950.000000	74.916	28.2151
3000.000000	74.936	28.1748
3040.000000	74.947	28.8760
3070.000000	74.963	29.4507
3110.000000	75.062	30.6076
3150.000000	75.005	30.1069
3200.000000	75.991	28.6570
3250.000000	75.204	26.9938
3300.000000	75.394	26.0348
3350.000000	76.574	27.1520
3400.000000	77.093	24.7128
3450.000000	77.473	21.3781
3500.000000	77.683	17.0834
3550.000000	77.725	13.1302
3600.000000	77.651	9.2344
3650.000000	77.505	5.4164
3700.000000	77.296	1.9527
3750.000000	77.036	-1.1592
3820.000000	76.611	-4.9244
3870.000000	76.276	-7.1404
3950.000000	75.697	-9.9330
4000.000000	75.312	-11.2332
4060.000000	74.890	-12.3270
4120.000000	74.466	-13.0875
4180.000000	74.078	-13.5298
4250.000000	73.665	-13.7670
4310.000000	73.346	-13.8610
4370.000000	73.074	-13.9213
4440.000000	72.818	-14.0723
4500.000000	72.633	-14.4249
4550.000000	72.506	-14.9239
4620.000000	72.346	-16.1249
4680.000000	72.204	-17.7383
4750.000000	72.005	-20.2560
4820.000000	71.677	-23.5048
4870.000000	71.324	-26.0126
4940.000000	70.634	-29.2098
5000.000000	69.864	-31.0858
5080.000000	68.695	-31.7629
5150.000000	67.674	-30.3871
5220.000000	66.719	-27.8236
5300.000000	65.767	-23.9132
5380.000000	64.995	-19.1273
5450.000000	64.393	-14.9957
5520.000000	63.900	-10.4023
5600.000000	63.434	-5.5042
5700.000000	63.067	0.7267
5800.000000	62.791	6.3157
5900.000000	62.571	11.9314
6000.000000	62.419	17.1708
6080.000000	62.397	21.4086
6150.000000	62.441	24.6547
6220.000000	62.457	28.0624
6300.000000	62.560	31.8335
6400.000000	62.795	36.0153
6500.000000	63.090	40.2401
6600.000000	63.459	43.9553
6700.000000	63.880	47.5137
6800.000000	64.328	50.9291
6900.000000	64.868	54.0300
7000.000000	65.460	56.9299
7100.000000	66.116	59.3575
7200.000000	66.838	61.1870
7300.000000	67.648	62.6139
7400.000000	68.520	63.2834
7500.000000	69.447	63.2851
7620.000000	70.632	61.9520
7750.000000	71.932	58.5524
7880.000000	73.179	52.9353
8000.000000	74.187	45.6617
8120.000000	74.840	36.7501
8250.000000	75.212	26.1281
8380.000000	75.258	15.4933
8500.000000	75.096	6.1368
8620.000000	74.811	-2.6366
8750.000000	74.408	-11.8090
8850.000000	74.039	-18.7639
9000.000000	73.341	-29.1143
9120.000000	72.635	-37.3746
9250.000000	71.705	-45.7636
9380.000000	70.621	-53.3147
9500.000000	69.526	-59.4100
9620.000000	68.377	-64.4437
9750.000000	67.125	-69.0018
9880.000000	65.899	-72.6655
10000.000000	64.785	-75.5012
10150.000000	63.571	-78.4883
10300.000000	62.394	-81.3123
10440.000000	61.414	-84.1318
10600.000000	60.247	-87.4962
10750.000000	59.200	-91.1313
10900.000000	58.012	-95.7964
11060.000000	56.637	-101.4987
11200.000000	55.222	-107.4761
11380.000000	52.994	-117.8029
11500.000000	50.865	-127.0241
11720.000000	44.816	-151.8298
11800.000000	41.783	-169.2504
12060.000000	41.090	79.1113
12200.000000	45.055	56.7460
12410.000000	48.319	38.1379
12500.000000	49.212	35.1115
12650.000000	50.225	29.4642
12800.000000	51.023	25.0615
13150.000000	52.185	20.2276
13200.000000	52.436	19.8102
13400.000000	52.846	16.2740
13600.000000	51.787	16.3583
13800.000000	53.432	22.9596
14000.000000	54.295	21.4443
14300.000000	55.536	17.2111
14500.000000	56.442	12.0084
14750.000000	57.310	0.6379
15000.000000	56.962	-13.1821
15250.000000	55.531	-23.9363
15500.000000	53.600	-27.9811
15750.000000	51.911	-28.3765
16000.000000	50.566	-22.5658
16250.000000	49.626	-18.0383
16500.000000	49.386	-11.9901
16750.000000	49.152	-7.7734
17000.000000	49.618	-0.5048
17250.000000	49.966	5.2525
17500.000000	50.960	5.7449
17750.000000	51.517	1.7902
18000.000000	50.945	-4.7224
18250.000000	50.217	-7.6003
18500.000000	49.244	-8.5398
18750.000000	47.966	-9.2726
19000.000000	46.192	-14.7141
19250.000000	44.175	-17.5598
19500.000000	41.831	-26.1895
19750.000000	38.644	-52.8042
