* Measurement data measured by REW V5.20.13
* Source: EXCL: Microphone (USB Sound Device        ), MICROPHONE (Master Volume), R, volume: 0.250
* Format: 256k Log Swept Sine, 1 sweep at -6.0 dBFS with no timing reference
* Dated: Sep 14, 2023 6:22:50 PM
* REW Settings:
*  C-weighting compensation: Off
*  Target level: 75.0 dB
* Note: ; 
* Measurement: n.Black f.Gold Foam R
* Smoothing: None
* Frequency Step: 1/48 octave
* Start Frequency: 1.000 Hz
*
* Freq(Hz)	SPL(dB)	Phase(degrees)
1.000000	67.524	-113.9354
1.015000	67.461	-115.9748
1.030000	67.400	-118.0183
1.044000	67.345	-119.9288
1.060000	67.286	-122.1152
1.075000	67.233	-124.1673
1.090000	67.183	-126.2207
1.106000	67.134	-128.4146
1.120000	67.092	-130.3522
1.138000	67.042	-132.8699
1.150000	67.009	-134.5630
1.172000	66.953	-137.6937
1.180000	66.933	-138.8395
1.206000	66.873	-142.5851
1.220000	66.842	-144.6130
1.241000	66.799	-147.6641
1.250000	66.782	-148.9739
1.265000	66.754	-151.1581
1.280000	66.727	-153.3417
1.315000	66.670	-158.4227
1.320000	66.663	-159.1457
1.340000	66.635	-162.0274
1.360000	66.608	-164.8887
1.380000	66.584	-167.7242
1.400000	66.563	-170.5289
1.430000	66.533	-174.6666
1.450000	66.516	-177.3712
1.475000	66.498	179.3123
1.500000	66.488	176.0249
1.525000	66.487	172.7584
1.550000	66.492	169.5164
1.575000	66.503	166.3024
1.600000	66.518	163.1199
1.625000	66.536	159.9722
1.650000	66.556	156.8629
1.675000	66.575	153.7956
1.700000	66.593	150.7736
1.725000	66.609	147.8004
1.750000	66.620	144.8795
1.775000	66.626	142.0144
1.800000	66.625	139.2086
1.825000	66.616	136.4656
1.850000	66.601	133.7830
1.875000	66.586	131.1492
1.900000	66.572	128.5640
1.925000	66.557	126.0280
1.950000	66.540	123.5414
1.975000	66.520	121.1049
2.000000	66.496	118.7189
2.030000	66.460	115.9231
2.060000	66.415	113.2013
2.090000	66.358	110.5546
2.120000	66.287	107.9835
2.140000	66.232	106.3120
2.180000	66.099	103.0719
2.200000	66.020	101.5034
2.240000	65.849	98.3766
2.270000	65.712	96.0377
2.300000	65.565	93.7325
2.330000	65.406	91.4862
2.360000	65.235	89.3244
2.400000	64.983	86.6170
2.430000	64.775	84.7508
2.470000	64.469	82.5299
2.500000	64.216	81.0976
2.540000	63.844	79.5473
2.580000	63.422	78.4265
2.620000	62.888	77.4841
2.650000	62.424	76.8939
2.690000	61.750	76.3276
2.720000	61.224	76.1128
2.760000	60.523	76.1716
2.800000	59.856	76.6993
2.850000	59.127	78.1423
2.900000	58.581	80.6036
2.950000	58.278	84.3474
3.000000	58.150	90.1845
3.040000	58.149	96.0701
3.070000	58.202	100.9481
3.110000	58.337	107.7706
3.150000	58.537	114.6143
3.200000	58.868	122.6288
3.250000	59.271	129.3614
3.300000	59.730	134.0857
3.350000	60.322	136.9488
3.400000	61.069	138.5679
3.450000	61.916	139.1964
3.500000	62.811	139.0878
3.550000	63.698	138.4955
3.600000	64.523	137.6729
3.650000	65.232	136.8732
3.700000	65.809	136.0850
3.750000	66.318	134.8564
3.820000	66.939	132.5630
3.870000	67.326	130.6648
3.950000	67.871	127.4821
4.000000	68.175	125.5734
4.060000	68.511	123.4753
4.120000	68.792	121.3275
4.180000	69.021	119.1333
4.250000	69.236	116.5904
4.310000	69.384	114.4904
4.370000	69.508	112.5239
4.440000	69.623	110.4193
4.500000	69.679	108.6851
4.550000	69.701	107.3060
4.620000	69.705	105.5164
4.680000	69.691	104.1504
4.750000	69.668	102.8010
4.820000	69.631	101.7362
4.870000	69.584	101.1266
4.940000	69.503	100.4702
5.000000	69.432	100.0785
5.080000	69.356	99.7814
5.150000	69.324	99.7265
5.220000	69.308	99.9821
5.300000	69.305	100.5712
5.380000	69.331	101.3019
5.450000	69.385	101.9136
5.520000	69.477	102.3974
5.600000	69.635	102.9816
5.700000	69.888	103.7000
5.800000	70.171	104.1939
5.900000	70.453	104.2553
6.000000	70.762	103.9209
6.080000	71.018	103.4381
6.150000	71.234	102.8946
6.220000	71.430	102.2676
6.300000	71.630	101.4092
6.400000	71.860	100.0911
6.500000	72.062	98.6467
6.600000	72.228	97.2321
6.700000	72.354	95.8067
6.800000	72.446	94.3492
6.900000	72.513	92.9699
7.000000	72.562	91.7638
7.100000	72.584	90.6823
7.200000	72.587	89.7229
7.300000	72.591	88.9072
7.400000	72.601	88.2678
7.500000	72.606	87.8036
7.620000	72.622	87.3800
7.750000	72.670	86.9837
7.880000	72.747	86.7273
8.000000	72.837	86.4911
8.120000	72.942	86.1285
8.250000	73.079	85.6510
8.380000	73.221	85.0630
8.500000	73.343	84.3804
8.620000	73.463	83.5658
8.750000	73.581	82.6103
8.850000	73.656	81.8574
9.000000	73.747	80.6490
9.120000	73.804	79.6981
9.250000	73.850	78.7464
9.380000	73.878	77.8423
9.500000	73.898	77.0799
9.620000	73.919	76.4124
9.750000	73.937	75.7796
9.880000	73.951	75.2041
10.000000	73.959	74.7232
10.150000	73.963	74.1851
10.300000	73.970	73.6350
10.440000	73.980	73.1126
10.600000	73.992	72.4915
10.750000	74.003	71.8575
10.900000	74.014	71.1904
11.060000	74.018	70.4716
11.200000	74.015	69.8292
11.380000	74.005	69.0307
11.500000	73.993	68.5257
11.720000	73.968	67.6490
11.800000	73.960	67.3509
12.060000	73.932	66.4385
12.200000	73.919	65.9591
12.410000	73.905	65.2517
12.500000	73.906	64.9409
12.650000	73.917	64.4137
12.800000	73.931	63.8823
13.150000	73.952	62.6346
13.200000	73.954	62.4628
13.400000	73.958	61.7929
13.600000	73.962	61.1608
13.800000	73.967	60.5755
14.000000	73.978	60.0070
14.300000	74.003	59.1644
14.500000	74.026	58.5704
14.750000	74.053	57.7874
15.000000	74.076	56.9638
15.250000	74.091	56.1408
15.500000	74.099	55.3580
15.750000	74.105	54.6318
16.000000	74.117	53.9695
16.250000	74.142	53.3334
16.500000	74.177	52.7014
16.750000	74.217	52.0401
17.000000	74.255	51.3506
17.250000	74.289	50.6469
17.500000	74.317	49.9517
17.750000	74.342	49.2936
18.000000	74.365	48.6736
18.250000	74.389	48.0921
18.500000	74.417	47.5251
18.750000	74.446	46.9616
19.000000	74.475	46.3918
19.250000	74.502	45.8194
19.500000	74.525	45.2550
19.750000	74.546	44.7058
20.000000	74.566	44.1771
20.299999	74.592	43.5574
20.600000	74.618	42.9399
20.900000	74.643	42.3123
21.200001	74.664	41.6749
21.400000	74.675	41.2538
21.799999	74.692	40.4353
22.000000	74.700	40.0407
22.400000	74.717	39.2699
22.700001	74.732	38.6867
23.000000	74.747	38.0837
23.299999	74.761	37.4636
23.600000	74.771	36.8366
24.000000	74.783	36.0061
24.299999	74.791	35.3906
24.700001	74.802	34.5723
25.000000	74.810	33.9563
25.400000	74.820	33.1387
25.799999	74.828	32.3418
26.200001	74.837	31.5702
26.500000	74.846	30.9991
26.900000	74.859	30.2349
27.200001	74.869	29.6584
27.600000	74.880	28.8945
28.000000	74.889	28.1469
28.500000	74.901	27.2267
29.000000	74.910	26.3005
29.500000	74.913	25.3809
30.000000	74.913	24.5016
30.400000	74.913	23.8229
30.700001	74.916	23.3124
31.100000	74.919	22.6140
31.500000	74.920	21.8998
32.000000	74.915	21.0171
32.500000	74.909	20.1655
33.000000	74.905	19.3253
33.500000	74.903	18.4755
34.000000	74.900	17.6245
34.500000	74.895	16.7866
35.000000	74.891	15.9587
35.500000	74.885	15.1373
36.000000	74.878	14.3322
36.500000	74.871	13.5477
37.000000	74.865	12.7723
37.500000	74.857	11.9979
38.200001	74.842	10.9313
38.700001	74.830	10.1890
39.500000	74.810	9.0199
40.000000	74.796	8.3022
40.599998	74.782	7.4552
41.200001	74.768	6.6105
41.799999	74.752	5.7698
42.500000	74.732	4.8123
43.099998	74.715	4.0074
43.700001	74.697	3.2141
44.400002	74.675	2.3143
45.000000	74.657	1.5573
45.500000	74.641	0.9275
46.200001	74.615	0.0627
46.799999	74.591	-0.6481
47.500000	74.564	-1.4510
48.200001	74.537	-2.2380
48.700001	74.518	-2.7947
49.400002	74.490	-3.5677
50.000000	74.464	-4.2125
50.799999	74.430	-5.0417
51.500000	74.398	-5.7469
52.200001	74.366	-6.4180
53.000000	74.333	-7.1587
53.799999	74.300	-7.9122
54.500000	74.266	-8.5505
55.200001	74.233	-9.1567
56.000000	74.196	-9.8470
57.000000	74.144	-10.6736
58.000000	74.097	-11.4243
59.000000	74.054	-12.1973
60.000000	74.001	-12.9568
60.799999	73.957	-13.4980
61.500000	73.922	-13.9593
62.200001	73.886	-14.4176
63.000000	73.844	-14.9224
64.000000	73.788	-15.5277
65.000000	73.734	-16.1086
66.000000	73.681	-16.6893
67.000000	73.624	-17.2394
68.000000	73.569	-17.7681
69.000000	73.512	-18.2762
70.000000	73.455	-18.7504
71.000000	73.402	-19.2137
72.000000	73.346	-19.6827
73.000000	73.289	-20.1190
74.000000	73.235	-20.5476
75.000000	73.178	-20.9720
76.199997	73.109	-21.4316
77.500000	73.039	-21.8899
78.800003	72.969	-22.3773
80.000000	72.896	-22.7819
81.199997	72.833	-23.1533
82.500000	72.761	-23.5815
83.800003	72.690	-23.9845
85.000000	72.622	-24.3187
86.199997	72.560	-24.6404
87.500000	72.490	-24.9801
88.500000	72.438	-25.2436
90.000000	72.354	-25.6101
91.199997	72.291	-25.8816
92.500000	72.222	-26.1747
93.800003	72.154	-26.4524
95.000000	72.092	-26.6981
96.199997	72.029	-26.9360
97.500000	71.963	-27.1759
98.800003	71.897	-27.4093
100.000000	71.837	-27.6299
101.500000	71.758	-27.8684
103.000000	71.684	-28.0860
104.400002	71.617	-28.2889
106.000000	71.539	-28.5256
107.500000	71.466	-28.7269
109.000000	71.390	-28.9285
110.599998	71.312	-29.1042
112.000000	71.245	-29.2605
113.800003	71.160	-29.4434
115.000000	71.105	-29.5562
117.199997	71.006	-29.7672
118.000000	70.969	-29.8380
120.599998	70.850	-30.0442
122.000000	70.786	-30.1300
124.099998	70.693	-30.2646
125.000000	70.653	-30.3171
126.500000	70.597	-30.3874
128.000000	70.543	-30.5001
131.500000	70.404	-30.6877
132.000000	70.384	-30.7015
134.000000	70.308	-30.7589
136.000000	70.234	-30.8168
138.000000	70.160	-30.8773
140.000000	70.089	-30.9258
143.000000	69.986	-30.9468
145.000000	69.914	-30.9996
147.500000	69.824	-31.0175
150.000000	69.741	-31.0198
152.500000	69.661	-31.0052
155.000000	69.576	-30.9863
157.500000	69.495	-30.9788
160.000000	69.411	-30.9713
162.500000	69.324	-30.8972
165.000000	69.235	-30.8181
167.500000	69.148	-30.7354
170.000000	69.057	-30.6631
172.500000	68.972	-30.6326
175.000000	68.889	-30.5760
177.500000	68.806	-30.4635
180.000000	68.726	-30.3389
182.500000	68.648	-30.2184
185.000000	68.567	-30.1318
187.500000	68.488	-30.0411
190.000000	68.413	-29.9310
192.500000	68.339	-29.7627
195.000000	68.265	-29.6033
197.500000	68.190	-29.4545
200.000000	68.118	-29.3140
203.000000	68.041	-29.1536
206.000000	67.966	-29.0081
209.000000	67.894	-28.8242
212.000000	67.821	-28.6035
214.000000	67.773	-28.4326
218.000000	67.673	-28.1641
220.000000	67.629	-28.0322
224.000000	67.543	-27.7766
227.000000	67.479	-27.5448
230.000000	67.416	-27.3110
233.000000	67.346	-27.0912
236.000000	67.283	-26.8606
240.000000	67.204	-26.5370
243.000000	67.151	-26.3168
247.000000	67.072	-25.9957
250.000000	67.013	-25.7570
254.000000	66.934	-25.4370
258.000000	66.872	-25.0583
262.000000	66.801	-24.7273
265.000000	66.752	-24.5024
269.000000	66.682	-24.1672
272.000000	66.631	-23.8567
276.000000	66.568	-23.4720
280.000000	66.506	-23.1328
285.000000	66.432	-22.7556
290.000000	66.359	-22.2541
295.000000	66.291	-21.7554
300.000000	66.226	-21.2760
304.000000	66.173	-20.9545
307.000000	66.140	-20.7059
311.000000	66.093	-20.3463
315.000000	66.035	-19.9675
320.000000	65.980	-19.4259
325.000000	65.929	-19.0109
330.000000	65.882	-18.5523
335.000000	65.825	-18.0483
340.000000	65.757	-17.5444
345.000000	65.705	-17.0870
350.000000	65.664	-16.6329
355.000000	65.625	-16.0919
360.000000	65.571	-15.6263
365.000000	65.518	-15.1484
370.000000	65.476	-14.6721
375.000000	65.441	-14.2116
382.000000	65.392	-13.5150
387.000000	65.360	-13.0153
395.000000	65.293	-12.2540
400.000000	65.261	-11.8157
406.000000	65.225	-11.2313
412.000000	65.186	-10.6259
418.000000	65.153	-10.0422
425.000000	65.117	-9.4093
431.000000	65.083	-8.8004
437.000000	65.054	-8.2838
444.000000	65.022	-7.6134
450.000000	65.004	-7.0354
455.000000	64.988	-6.5732
462.000000	64.955	-5.9088
468.000000	64.933	-5.3787
475.000000	64.912	-4.6892
482.000000	64.886	-4.0220
487.000000	64.884	-3.5370
494.000000	64.864	-2.9040
500.000000	64.851	-2.3850
508.000000	64.828	-1.6584
515.000000	64.837	-0.8749
522.000000	64.839	-0.2903
530.000000	64.802	0.6885
538.000000	64.858	1.9302
545.000000	64.953	2.4551
552.000000	64.992	2.6016
560.000000	64.946	2.9073
570.000000	64.830	3.8466
580.000000	64.698	5.1316
590.000000	64.580	6.4430
600.000000	64.494	7.3622
608.000000	64.471	7.7943
615.000000	64.494	8.1972
622.000000	64.534	8.7783
630.000000	64.551	9.5627
640.000000	64.581	10.4249
650.000000	64.609	11.4280
660.000000	64.626	12.3022
670.000000	64.660	13.2140
680.000000	64.696	14.0930
690.000000	64.719	14.9825
700.000000	64.750	15.8469
710.000000	64.777	16.7952
720.000000	64.823	17.6365
730.000000	64.856	18.5560
740.000000	64.894	19.4087
750.000000	64.933	20.2440
762.000000	64.983	21.2993
775.000000	65.041	22.4302
788.000000	65.102	23.5587
800.000000	65.174	24.5568
812.000000	65.227	25.5611
825.000000	65.292	26.6036
838.000000	65.356	27.6987
850.000000	65.414	28.7095
862.000000	65.491	29.6313
875.000000	65.570	30.6355
885.000000	65.639	31.3940
900.000000	65.731	32.5659
912.000000	65.818	33.4102
925.000000	65.910	34.2923
938.000000	66.014	35.1545
950.000000	66.102	35.9988
962.000000	66.198	36.7943
975.000000	66.294	37.5801
988.000000	66.403	38.3645
1000.000000	66.494	39.1250
1015.000000	66.646	39.9152
1030.000000	66.785	40.7041
1044.000000	66.924	41.4292
1060.000000	67.083	42.1899
1075.000000	67.226	42.8492
1090.000000	67.360	43.4850
1106.000000	67.506	44.1599
1120.000000	67.636	44.7466
1138.000000	67.797	45.4420
1150.000000	67.907	45.9296
1172.000000	68.106	46.7821
1180.000000	68.182	47.0564
1206.000000	68.423	47.9299
1220.000000	68.545	48.4116
1241.000000	68.732	49.0962
1250.000000	68.812	49.4161
1265.000000	68.916	49.8848
1280.000000	69.031	50.3469
1315.000000	69.291	51.2988
1320.000000	69.326	51.4510
1340.000000	69.472	52.0154
1360.000000	69.621	52.5497
1380.000000	69.775	53.0105
1400.000000	69.934	53.4814
1430.000000	70.181	54.1212
1450.000000	70.346	54.4977
1475.000000	70.590	54.8535
1500.000000	70.835	54.6169
1525.000000	70.926	53.5446
1550.000000	70.876	53.5261
1575.000000	70.891	54.0332
1600.000000	70.988	53.9396
1625.000000	71.524	54.2737
1650.000000	71.642	57.7812
1675.000000	71.711	55.9292
1700.000000	72.236	56.1007
1725.000000	72.401	56.8572
1750.000000	72.663	56.1995
1775.000000	72.898	55.9622
1800.000000	73.131	55.4390
1825.000000	73.345	54.8094
1850.000000	73.546	54.0544
1875.000000	73.738	53.1942
1900.000000	73.918	52.2179
1925.000000	74.091	51.1194
1950.000000	74.254	49.9055
1975.000000	74.404	48.6125
2000.000000	74.544	47.2791
2030.000000	74.698	45.4301
2060.000000	74.839	43.5234
2090.000000	74.961	41.5508
2120.000000	75.058	39.4820
2140.000000	75.112	38.1389
2180.000000	75.182	35.4227
2200.000000	75.204	34.1036
2240.000000	75.219	31.5003
2270.000000	75.209	29.6822
2300.000000	75.187	27.9552
2330.000000	75.145	26.3367
2360.000000	75.094	24.8486
2400.000000	75.008	23.0688
2430.000000	74.940	21.8847
2470.000000	74.846	20.5231
2500.000000	74.775	19.6294
2540.000000	74.676	18.6776
2580.000000	74.583	17.8871
2620.000000	74.500	17.2820
2650.000000	74.442	16.8890
2690.000000	74.375	16.4540
2720.000000	74.332	16.1825
2760.000000	74.279	15.9523
2800.000000	74.235	15.7971
2850.000000	74.203	15.6687
2900.000000	74.190	15.6845
2950.000000	74.196	15.7380
3000.000000	74.240	15.8964
3040.000000	74.273	16.3569
3070.000000	74.306	16.1868
3110.000000	74.446	15.6544
3150.000000	74.877	17.7098
3200.000000	74.699	13.0917
3250.000000	74.508	12.8464
3300.000000	75.345	11.5035
3350.000000	75.681	10.8820
3400.000000	76.050	8.0872
3450.000000	76.250	4.4211
3500.000000	76.341	0.1510
3550.000000	76.340	-4.4434
3600.000000	76.261	-9.1634
3650.000000	76.102	-13.7249
3700.000000	75.869	-17.9934
3750.000000	75.565	-21.8250
3820.000000	75.043	-26.3926
3870.000000	74.609	-29.0554
3950.000000	73.832	-32.2118
4000.000000	73.315	-33.5392
4060.000000	72.700	-34.2815
4120.000000	72.102	-34.5963
4180.000000	71.547	-34.6023
4250.000000	70.948	-34.2651
4310.000000	70.480	-33.7642
4370.000000	70.077	-33.1829
4440.000000	69.698	-32.5899
4500.000000	69.435	-32.5401
4550.000000	69.243	-32.8429
4620.000000	68.970	-33.9578
4680.000000	68.707	-35.4709
4750.000000	68.328	-37.7930
4820.000000	67.797	-40.6073
4870.000000	67.283	-42.6747
4940.000000	66.371	-44.9238
5000.000000	65.410	-45.6920
5080.000000	64.067	-44.5824
5150.000000	62.945	-41.9114
5220.000000	61.929	-38.0796
5300.000000	60.902	-32.6710
5380.000000	60.056	-26.9017
5450.000000	59.442	-21.5237
5520.000000	58.943	-16.3300
5600.000000	58.436	-10.2420
5700.000000	58.040	-3.0336
5800.000000	57.660	4.0748
5900.000000	57.424	10.7122
6000.000000	57.337	17.7510
6080.000000	57.250	22.6779
6150.000000	57.288	27.3387
6220.000000	57.360	31.5688
6300.000000	57.423	36.4628
6400.000000	57.762	42.2380
6500.000000	58.165	47.7277
6600.000000	58.592	52.5762
6700.000000	59.028	57.1343
6800.000000	59.566	62.4786
6900.000000	60.199	67.0075
7000.000000	60.938	71.6673
7100.000000	61.782	75.6655
7200.000000	62.720	79.4321
7300.000000	63.785	82.6122
7400.000000	64.979	85.0306
7500.000000	66.334	86.5946
7620.000000	68.160	86.8064
7750.000000	70.360	83.5312
7880.000000	72.562	75.0919
8000.000000	74.183	61.6367
8120.000000	74.780	44.3739
8250.000000	74.451	27.0538
8380.000000	73.696	14.7320
8500.000000	73.027	7.0206
8620.000000	72.541	0.7997
8750.000000	72.259	-6.0126
8850.000000	72.132	-12.2092
9000.000000	71.881	-24.2049
9120.000000	71.345	-35.8682
9250.000000	70.214	-48.5990
9380.000000	68.571	-59.1461
9500.000000	66.845	-66.0778
9620.000000	65.076	-70.5138
9750.000000	63.285	-73.1919
9880.000000	61.614	-74.4211
10000.000000	60.209	-74.7037
10150.000000	58.788	-74.7444
10300.000000	57.448	-74.3727
10440.000000	56.373	-73.9745
10600.000000	55.228	-73.8372
10750.000000	54.291	-74.5816
10900.000000	53.244	-75.9667
11060.000000	52.072	-78.3353
11200.000000	50.993	-82.2053
11380.000000	48.869	-89.7029
11500.000000	47.102	-95.7712
11720.000000	42.568	-113.7210
11800.000000	39.963	-127.1707
12060.000000	38.275	138.2803
12200.000000	42.755	112.2106
12410.000000	47.557	95.3695
12500.000000	49.225	91.4706
12650.000000	51.576	86.4980
12800.000000	53.977	81.3062
13150.000000	59.599	54.9463
13200.000000	60.188	48.3303
13400.000000	60.629	19.1063
13600.000000	57.890	-0.2061
13800.000000	56.782	1.9365
14000.000000	55.950	0.7724
14300.000000	55.492	2.3295
14500.000000	55.704	3.5043
14750.000000	56.603	1.4698
15000.000000	57.667	-7.3364
15250.000000	57.661	-25.1477
15500.000000	55.692	-39.9089
15750.000000	53.033	-45.3741
16000.000000	50.758	-42.7833
16250.000000	49.313	-36.9845
16500.000000	48.299	-30.0684
16750.000000	47.856	-22.1394
17000.000000	47.694	-13.2957
17250.000000	47.950	-6.4951
17500.000000	48.841	-0.8015
17750.000000	49.664	-0.0643
18000.000000	50.324	-3.6386
18250.000000	50.426	-10.3621
18500.000000	50.041	-19.8716
18750.000000	48.663	-29.9819
19000.000000	46.489	-36.1871
19250.000000	43.844	-42.6617
19500.000000	40.890	-52.9312
19750.000000	37.857	-75.5460
