* Measurement data measured by REW V5.20.13
* Source: C:\Users\marcu\OneDrive\Desktop\audio_db\Kiwi Ears Quartet s.10 Foam L.txt
* Format: Comma/Tab/Space delimited data
* Dated: Jul 16, 2023 8:04:47 PM
* REW Settings:
*  C-weighting compensation: Off
*  Target level: 75.0 dB
* Note: ; Measurement imported from C:\Users\marcu\OneDrive\Desktop\audio_db\Kiwi Ears Quartet s.10 Foam L.txt Format: Comma/Tab/Space delimited data 54613 values loaded, 0 Hz to 20,000 Hz 
* Measurement: Kiwi Ears Quartet s.10 Foam L
* Smoothing: None
* Frequency Step: 1/48 octave
* Start Frequency: 1.000 Hz
*
* Freq(Hz)	SPL(dB)	Phase(degrees)
1.000000	58.465	153.5097
1.015000	58.375	152.7812
1.030000	58.282	152.0257
1.044000	58.191	151.2948
1.060000	58.083	150.4273
1.075000	57.978	149.5812
1.090000	57.868	148.7017
1.106000	57.746	147.7320
1.120000	57.632	146.8941
1.138000	57.477	145.8355
1.150000	57.368	145.1371
1.172000	57.160	143.8607
1.180000	57.081	143.3951
1.206000	56.816	141.8625
1.220000	56.668	141.0176
1.241000	56.442	139.7118
1.250000	56.343	139.1347
1.265000	56.177	138.1452
1.280000	56.010	137.1160
1.315000	55.616	134.5286
1.320000	55.560	134.1347
1.340000	55.336	132.4897
1.360000	55.114	130.7240
1.380000	54.896	128.8241
1.400000	54.683	126.7766
1.430000	54.377	123.3992
1.450000	54.183	120.9240
1.475000	53.950	117.5454
1.500000	53.700	113.7687
1.525000	53.430	109.6211
1.550000	53.147	105.1540
1.575000	52.858	100.4191
1.600000	52.569	95.4681
1.625000	52.289	90.3524
1.650000	52.023	85.1238
1.675000	51.778	79.8338
1.700000	51.561	74.5339
1.725000	51.379	69.2759
1.750000	51.239	64.1113
1.775000	51.148	59.0918
1.800000	51.113	54.2688
1.825000	51.139	49.6941
1.850000	51.237	45.3173
1.875000	51.407	40.9309
1.900000	51.643	36.5442
1.925000	51.934	32.1765
1.950000	52.272	27.8474
1.975000	52.649	23.5761
2.000000	53.056	19.3823
2.030000	53.572	14.4791
2.060000	54.102	9.7489
2.090000	54.633	5.2251
2.120000	55.150	0.9413
2.140000	55.478	-1.7647
2.180000	56.078	-6.7720
2.200000	56.340	-9.0534
2.240000	56.840	-13.1398
2.270000	57.209	-15.8227
2.300000	57.573	-18.2202
2.330000	57.931	-20.3700
2.360000	58.280	-22.3097
2.400000	58.733	-24.6343
2.430000	59.060	-26.2303
2.470000	59.479	-28.2335
2.500000	59.779	-29.6910
2.540000	60.157	-31.6463
2.580000	60.507	-33.6683
2.620000	60.830	-35.5730
2.650000	61.055	-36.8998
2.690000	61.335	-38.5474
2.720000	61.531	-39.7016
2.760000	61.777	-41.1458
2.800000	62.008	-42.4982
2.850000	62.279	-44.0860
2.900000	62.538	-45.5919
2.950000	62.788	-47.0410
3.000000	63.014	-48.3756
3.040000	63.178	-49.3549
3.070000	63.293	-50.0413
3.110000	63.437	-50.8970
3.150000	63.573	-51.6897
3.200000	63.736	-52.6003
3.250000	63.895	-53.4320
3.300000	64.054	-54.1953
3.350000	64.207	-54.8633
3.400000	64.349	-55.4238
3.450000	64.483	-55.8935
3.500000	64.613	-56.2894
3.550000	64.742	-56.6283
3.600000	64.873	-56.9271
3.650000	65.010	-57.2028
3.700000	65.152	-57.4460
3.750000	65.296	-57.6132
3.820000	65.500	-57.7550
3.870000	65.648	-57.8188
3.950000	65.890	-57.9140
4.000000	66.045	-58.0018
4.060000	66.238	-58.1553
4.120000	66.438	-58.3063
4.180000	66.644	-58.4599
4.250000	66.888	-58.6646
4.310000	67.097	-58.8809
4.370000	67.302	-59.1526
4.440000	67.538	-59.5539
4.500000	67.741	-59.9565
4.550000	67.910	-60.3278
4.620000	68.143	-60.8954
4.680000	68.337	-61.4199
4.750000	68.553	-62.0678
4.820000	68.757	-62.7636
4.870000	68.899	-63.3007
4.940000	69.089	-64.0926
5.000000	69.245	-64.7937
5.080000	69.441	-65.7357
5.150000	69.602	-66.5473
5.220000	69.750	-67.3743
5.300000	69.907	-68.3354
5.380000	70.053	-69.2899
5.450000	70.173	-70.1004
5.520000	70.288	-70.8735
5.600000	70.408	-71.7294
5.700000	70.545	-72.7601
5.800000	70.675	-73.7376
5.900000	70.803	-74.6503
6.000000	70.925	-75.4903
6.080000	71.019	-76.1231
6.150000	71.102	-76.6588
6.220000	71.187	-77.1861
6.300000	71.287	-77.7708
6.400000	71.413	-78.4648
6.500000	71.541	-79.1474
6.600000	71.671	-79.8508
6.700000	71.805	-80.5714
6.800000	71.941	-81.3014
6.900000	72.077	-82.0533
7.000000	72.209	-82.8393
7.100000	72.341	-83.6602
7.200000	72.470	-84.5053
7.300000	72.594	-85.3634
7.400000	72.712	-86.2337
7.500000	72.824	-87.1248
7.620000	72.952	-88.1955
7.750000	73.082	-89.3267
7.880000	73.201	-90.4424
8.000000	73.305	-91.4441
8.120000	73.406	-92.4009
8.250000	73.510	-93.3923
8.380000	73.611	-94.3433
8.500000	73.706	-95.1857
8.620000	73.799	-95.9902
8.750000	73.901	-96.8381
8.850000	73.981	-97.4835
9.000000	74.102	-98.4290
9.120000	74.200	-99.1790
9.250000	74.304	-99.9963
9.380000	74.408	-100.8131
9.500000	74.502	-101.5647
9.620000	74.593	-102.3157
9.750000	74.691	-103.1283
9.880000	74.777	-103.9273
10.000000	74.839	-104.6499
10.150000	74.901	-105.5351
10.300000	74.955	-106.3877
10.440000	74.996	-107.1525
10.600000	75.039	-107.9948
10.750000	75.079	-108.7530
10.900000	75.117	-109.4835
11.060000	75.158	-110.2458
11.200000	75.192	-110.8963
11.380000	75.235	-111.7207
11.500000	75.263	-112.2659
11.720000	75.310	-113.2522
11.800000	75.325	-113.6071
12.060000	75.369	-114.7437
12.200000	75.388	-115.3393
12.410000	75.415	-116.2113
12.500000	75.431	-116.5758
12.650000	75.466	-117.1703
12.800000	75.502	-117.7527
13.150000	75.583	-119.0717
13.200000	75.594	-119.2578
13.400000	75.637	-119.9968
13.600000	75.677	-120.7312
13.800000	75.714	-121.4636
14.000000	75.748	-122.1897
14.300000	75.792	-123.2633
14.500000	75.818	-123.9622
14.750000	75.848	-124.8168
15.000000	75.876	-125.6512
15.250000	75.905	-126.4731
15.500000	75.932	-127.2890
15.750000	75.958	-128.1015
16.000000	75.986	-128.9111
16.250000	76.016	-129.7111
16.500000	76.046	-130.4973
16.750000	76.076	-131.2637
17.000000	76.105	-132.0102
17.250000	76.134	-132.7385
17.500000	76.164	-133.4519
17.750000	76.193	-134.1538
18.000000	76.221	-134.8436
18.250000	76.248	-135.5207
18.500000	76.273	-136.1808
18.750000	76.298	-136.8228
19.000000	76.321	-137.4453
19.250000	76.343	-138.0501
19.500000	76.365	-138.6395
19.750000	76.385	-139.2151
20.000000	76.405	-139.7787
20.299999	76.428	-140.4384
20.600000	76.448	-141.0798
20.900000	76.469	-141.7036
21.200001	76.486	-142.3128
21.400000	76.497	-142.7133
21.799999	76.516	-143.5043
22.000000	76.525	-143.8952
22.400000	76.539	-144.6656
22.700001	76.547	-145.2310
23.000000	76.554	-145.7852
23.299999	76.561	-146.3315
23.600000	76.568	-146.8739
24.000000	76.576	-147.5946
24.299999	76.581	-148.1321
24.700001	76.587	-148.8391
25.000000	76.591	-149.3584
25.400000	76.598	-150.0363
25.799999	76.606	-150.7028
26.200001	76.614	-151.3614
26.500000	76.619	-151.8480
26.900000	76.625	-152.4814
27.200001	76.629	-152.9414
27.600000	76.634	-153.5334
28.000000	76.639	-154.1051
28.500000	76.646	-154.7990
29.000000	76.652	-155.4762
29.500000	76.655	-156.1390
30.000000	76.657	-156.7880
30.400000	76.657	-157.2971
30.700001	76.655	-157.6727
31.100000	76.653	-158.1663
31.500000	76.650	-158.6529
32.000000	76.645	-159.2526
32.500000	76.638	-159.8411
33.000000	76.632	-160.4172
33.500000	76.626	-160.9856
34.000000	76.622	-161.5527
34.500000	76.616	-162.1172
35.000000	76.609	-162.6707
35.500000	76.602	-163.2061
36.000000	76.597	-163.7249
36.500000	76.590	-164.2315
37.000000	76.585	-164.7293
37.500000	76.578	-165.2184
38.200001	76.567	-165.8849
38.700001	76.560	-166.3459
39.500000	76.548	-167.0685
40.000000	76.540	-167.5219
40.599998	76.531	-168.0669
41.200001	76.518	-168.5970
41.799999	76.506	-169.1032
42.500000	76.494	-169.6735
43.099998	76.485	-170.1585
43.700001	76.475	-170.6439
44.400002	76.464	-171.2062
45.000000	76.453	-171.6790
45.500000	76.443	-172.0650
46.200001	76.430	-172.5940
46.799999	76.417	-173.0368
47.500000	76.404	-173.5434
48.200001	76.390	-174.0448
48.700001	76.380	-174.3988
49.400002	76.365	-174.8844
50.000000	76.353	-175.2927
50.799999	76.338	-175.8282
51.500000	76.325	-176.2873
52.200001	76.311	-176.7430
53.000000	76.295	-177.2611
53.799999	76.277	-177.7628
54.500000	76.261	-178.1880
55.200001	76.246	-178.6059
56.000000	76.229	-179.0781
57.000000	76.208	-179.6721
58.000000	76.185	179.7482
59.000000	76.163	179.1879
60.000000	76.141	178.6287
60.799999	76.123	178.2003
61.500000	76.107	177.8306
62.200001	76.090	177.4598
63.000000	76.071	177.0489
64.000000	76.045	176.5447
65.000000	76.019	176.0335
66.000000	75.991	175.5398
67.000000	75.963	175.0626
68.000000	75.937	174.5894
69.000000	75.909	174.1232
70.000000	75.882	173.6754
71.000000	75.856	173.2303
72.000000	75.829	172.7792
73.000000	75.799	172.3365
74.000000	75.770	171.9147
75.000000	75.743	171.5034
76.199997	75.710	170.9978
77.500000	75.672	170.4660
78.800003	75.634	169.9596
80.000000	75.601	169.4963
81.199997	75.568	169.0257
82.500000	75.530	168.5425
83.800003	75.495	168.0671
85.000000	75.460	167.6340
86.199997	75.426	167.2150
87.500000	75.389	166.7682
88.500000	75.360	166.4295
90.000000	75.316	165.9327
91.199997	75.283	165.5438
92.500000	75.246	165.1170
93.800003	75.206	164.7079
95.000000	75.171	164.3399
96.199997	75.135	163.9726
97.500000	75.097	163.5876
98.800003	75.059	163.2100
100.000000	75.024	162.8655
101.500000	74.980	162.4432
103.000000	74.936	162.0301
104.400002	74.894	161.6468
106.000000	74.846	161.2242
107.500000	74.801	160.8299
109.000000	74.756	160.4486
110.599998	74.709	160.0512
112.000000	74.668	159.7073
113.800003	74.615	159.2748
115.000000	74.580	158.9969
117.199997	74.514	158.5031
118.000000	74.490	158.3329
120.599998	74.411	157.7715
122.000000	74.366	157.4759
124.099998	74.303	157.0506
125.000000	74.278	156.8712
126.500000	74.238	156.5750
128.000000	74.199	156.2762
131.500000	74.104	155.6296
132.000000	74.092	155.5410
134.000000	74.040	155.1854
136.000000	73.986	154.8344
138.000000	73.933	154.5080
140.000000	73.880	154.1866
143.000000	73.801	153.7197
145.000000	73.750	153.4235
147.500000	73.683	153.0572
150.000000	73.616	152.7147
152.500000	73.550	152.3732
155.000000	73.484	152.0479
157.500000	73.418	151.7419
160.000000	73.350	151.4537
162.500000	73.272	151.1772
165.000000	73.194	150.8990
167.500000	73.116	150.6288
170.000000	73.039	150.3752
172.500000	72.962	150.1423
175.000000	72.884	149.9246
177.500000	72.808	149.7003
180.000000	72.731	149.4903
182.500000	72.656	149.3015
185.000000	72.582	149.1106
187.500000	72.505	148.9360
190.000000	72.432	148.7783
192.500000	72.359	148.6147
195.000000	72.286	148.4635
197.500000	72.214	148.3268
200.000000	72.143	148.2025
203.000000	72.061	148.0589
206.000000	71.984	147.9175
209.000000	71.907	147.7864
212.000000	71.829	147.6765
214.000000	71.777	147.6131
218.000000	71.676	147.4885
220.000000	71.626	147.4268
224.000000	71.527	147.3268
227.000000	71.455	147.2667
230.000000	71.384	147.2139
233.000000	71.311	147.1783
236.000000	71.239	147.1414
240.000000	71.146	147.0956
243.000000	71.075	147.0865
247.000000	70.984	147.0717
250.000000	70.918	147.0592
254.000000	70.830	147.0739
258.000000	70.745	147.1189
262.000000	70.663	147.1599
265.000000	70.600	147.2004
269.000000	70.518	147.2583
272.000000	70.458	147.3073
276.000000	70.379	147.3863
280.000000	70.304	147.4871
285.000000	70.207	147.6060
290.000000	70.114	147.7404
295.000000	70.026	147.9052
300.000000	69.939	148.0763
304.000000	69.868	148.2146
307.000000	69.817	148.3333
311.000000	69.754	148.4997
315.000000	69.690	148.6635
320.000000	69.613	148.8770
325.000000	69.535	149.0914
330.000000	69.459	149.3124
335.000000	69.386	149.5570
340.000000	69.318	149.8109
345.000000	69.251	150.0649
350.000000	69.186	150.3213
355.000000	69.124	150.5904
360.000000	69.065	150.8694
365.000000	69.006	151.1342
370.000000	68.951	151.4181
375.000000	68.897	151.7080
382.000000	68.824	152.1022
387.000000	68.776	152.3890
395.000000	68.702	152.8419
400.000000	68.659	153.1338
406.000000	68.606	153.4771
412.000000	68.561	153.8262
418.000000	68.517	154.1631
425.000000	68.467	154.5544
431.000000	68.428	154.8929
437.000000	68.391	155.2371
444.000000	68.350	155.6243
450.000000	68.321	155.9490
455.000000	68.295	156.2252
462.000000	68.260	156.5985
468.000000	68.232	156.9021
475.000000	68.203	157.2535
482.000000	68.176	157.6021
487.000000	68.156	157.8459
494.000000	68.130	158.1845
500.000000	68.110	158.4808
508.000000	68.086	158.8508
515.000000	68.068	159.1567
522.000000	68.051	159.4667
530.000000	68.033	159.8124
538.000000	68.014	160.1563
545.000000	68.000	160.4346
552.000000	67.985	160.7203
560.000000	67.968	161.0242
570.000000	67.952	161.4117
580.000000	67.935	161.7766
590.000000	67.918	162.1584
600.000000	67.903	162.5217
608.000000	67.888	162.7980
615.000000	67.875	163.0471
622.000000	67.864	163.2986
630.000000	67.853	163.5897
640.000000	67.839	163.9334
650.000000	67.827	164.2968
660.000000	67.816	164.6522
670.000000	67.805	165.0174
680.000000	67.796	165.3884
690.000000	67.789	165.7426
700.000000	67.781	166.1019
710.000000	67.773	166.4844
720.000000	67.766	166.8561
730.000000	67.760	167.2356
740.000000	67.750	167.6197
750.000000	67.743	168.0148
762.000000	67.732	168.5263
775.000000	67.718	169.2440
788.000000	67.733	170.0335
800.000000	67.771	170.7080
812.000000	67.813	171.2573
825.000000	67.848	171.7870
838.000000	67.881	172.2938
850.000000	67.913	172.7571
862.000000	67.946	173.2253
875.000000	67.986	173.7198
885.000000	68.022	174.0992
900.000000	68.078	174.6508
912.000000	68.126	175.0822
925.000000	68.185	175.5287
938.000000	68.248	175.9492
950.000000	68.310	176.3224
962.000000	68.376	176.6727
975.000000	68.451	177.0191
988.000000	68.529	177.3299
1000.000000	68.607	177.5919
1015.000000	68.716	177.8549
1030.000000	68.829	178.0710
1044.000000	68.937	178.2368
1060.000000	69.063	178.3719
1075.000000	69.180	178.4351
1090.000000	69.296	178.4615
1106.000000	69.416	178.4338
1120.000000	69.522	178.3608
1138.000000	69.652	178.2008
1150.000000	69.737	178.0726
1172.000000	69.883	177.7899
1180.000000	69.935	177.6653
1206.000000	70.094	177.2085
1220.000000	70.173	176.9332
1241.000000	70.283	176.4943
1250.000000	70.322	176.2925
1265.000000	70.371	175.9464
1280.000000	70.409	175.6036
1315.000000	70.482	174.7977
1320.000000	70.489	174.6834
1340.000000	70.517	174.2231
1360.000000	70.536	173.7866
1380.000000	70.551	173.3893
1400.000000	70.558	173.0112
1430.000000	70.562	172.5138
1450.000000	70.561	172.2420
1475.000000	70.557	171.9597
1500.000000	70.551	171.7272
1525.000000	70.545	171.5953
1550.000000	70.545	171.5305
1575.000000	70.549	171.5455
1600.000000	70.568	171.6142
1625.000000	70.618	171.7452
1650.000000	70.687	171.9316
1675.000000	70.764	172.1377
1700.000000	70.856	172.3723
1725.000000	70.960	172.6136
1750.000000	71.076	172.8517
1775.000000	71.204	173.0646
1800.000000	71.347	173.2380
1825.000000	71.502	173.3521
1850.000000	71.665	173.4119
1875.000000	71.839	173.3931
1900.000000	72.019	173.2979
1925.000000	72.204	173.1015
1950.000000	72.392	172.8155
1975.000000	72.579	172.4207
2000.000000	72.765	171.9239
2030.000000	72.977	171.1956
2060.000000	73.177	170.3202
2090.000000	73.364	169.3091
2120.000000	73.534	168.1839
2140.000000	73.636	167.3835
2180.000000	73.813	165.6813
2200.000000	73.885	164.7936
2240.000000	74.001	162.9801
2270.000000	74.063	161.6112
2300.000000	74.103	160.2545
2330.000000	74.122	158.9418
2360.000000	74.124	157.6729
2400.000000	74.104	156.0885
2430.000000	74.073	154.9795
2470.000000	74.016	153.6146
2500.000000	73.966	152.6817
2540.000000	73.889	151.5672
2580.000000	73.805	150.5823
2620.000000	73.720	149.7360
2650.000000	73.657	149.1789
2690.000000	73.575	148.5239
2720.000000	73.516	148.0993
2760.000000	73.444	147.6044
2800.000000	73.381	147.1815
2850.000000	73.314	146.7373
2900.000000	73.263	146.3699
2950.000000	73.228	146.0646
3000.000000	73.211	145.7853
3040.000000	73.209	145.5740
3070.000000	73.214	145.4136
3110.000000	73.230	145.1931
3150.000000	73.256	144.9589
3200.000000	73.299	144.6219
3250.000000	73.353	144.2206
3300.000000	73.415	143.7444
3350.000000	73.483	143.1817
3400.000000	73.556	142.5106
3450.000000	73.628	141.7180
3500.000000	73.693	140.7921
3550.000000	73.748	139.7345
3600.000000	73.786	138.5337
3650.000000	73.805	137.1956
3700.000000	73.796	135.7338
3750.000000	73.752	134.1557
3820.000000	73.623	131.8227
3870.000000	73.472	130.1324
3950.000000	73.118	127.5669
4000.000000	72.817	126.1849
4060.000000	72.375	124.9362
4120.000000	71.852	124.3796
4180.000000	71.270	124.7883
4250.000000	70.578	126.8346
4310.000000	70.044	130.0539
4370.000000	69.648	134.5381
4440.000000	69.455	140.8649
4500.000000	69.567	146.5507
4550.000000	69.849	150.9726
4620.000000	70.470	156.0644
4680.000000	71.130	159.0703
4750.000000	71.945	160.8599
4820.000000	72.721	160.9243
4870.000000	73.212	160.0579
4940.000000	73.773	157.8651
5000.000000	74.116	155.3619
5080.000000	74.365	151.6083
5150.000000	74.412	148.3515
5220.000000	74.331	145.4323
5300.000000	74.115	142.7010
5380.000000	73.791	140.8475
5450.000000	73.474	140.0322
5520.000000	73.146	139.7980
5600.000000	72.766	140.1911
5700.000000	72.314	141.6074
5800.000000	71.935	143.8622
5900.000000	71.638	146.4547
6000.000000	71.380	149.3352
6080.000000	71.206	151.9077
6150.000000	71.085	154.3360
6220.000000	70.997	156.9045
6300.000000	70.953	159.9656
6400.000000	71.019	163.9162
6500.000000	71.173	167.9288
6600.000000	71.401	171.9427
6700.000000	71.706	175.8937
6800.000000	72.091	179.6949
6900.000000	72.556	-176.7633
7000.000000	73.104	-173.5820
7100.000000	73.730	-170.9098
7200.000000	74.421	-168.9145
7300.000000	75.166	-167.7490
7400.000000	75.943	-167.6564
7500.000000	76.707	-168.8932
7620.000000	77.505	-172.2936
7750.000000	78.086	-177.8478
7880.000000	78.298	175.9172
8000.000000	78.187	170.8447
8120.000000	77.839	167.1092
8250.000000	77.389	164.5188
8380.000000	76.978	162.8945
8500.000000	76.657	161.6395
8620.000000	76.361	160.1473
8750.000000	75.997	158.0708
8850.000000	75.641	156.2877
9000.000000	74.936	153.9072
9120.000000	74.242	152.8162
9250.000000	73.421	152.8370
9380.000000	72.602	154.1094
9500.000000	71.901	156.2246
9620.000000	71.281	158.9862
9750.000000	70.717	162.6342
9880.000000	70.331	166.6870
10000.000000	70.163	170.2197
10150.000000	70.210	173.6715
10300.000000	70.465	175.0844
10440.000000	70.733	173.2283
10600.000000	70.593	165.9489
10750.000000	69.292	156.6985
10900.000000	66.536	153.8215
11060.000000	62.800	166.8544
11200.000000	60.794	-168.5224
11380.000000	61.904	-139.7935
11500.000000	63.382	-129.1286
11720.000000	65.683	-120.6569
11800.000000	66.331	-119.5532
12060.000000	67.755	-119.3224
12200.000000	68.144	-119.9662
12410.000000	68.381	-120.2651
12500.000000	68.407	-119.9082
12650.000000	68.433	-118.6444
12800.000000	68.543	-116.8570
13150.000000	69.401	-115.4878
13200.000000	69.550	-116.1966
13400.000000	69.875	-121.6801
13600.000000	69.559	-128.8640
13800.000000	68.737	-135.4712
14000.000000	67.463	-140.7986
14300.000000	65.158	-144.6974
14500.000000	63.428	-145.8097
14750.000000	61.012	-144.1673
15000.000000	58.579	-139.1277
15250.000000	56.270	-131.7162
15500.000000	54.081	-122.2759
15750.000000	52.031	-110.8069
16000.000000	50.267	-97.4028
16250.000000	49.034	-82.5065
16500.000000	48.213	-66.8639
16750.000000	47.715	-50.7675
17000.000000	47.490	-34.6673
17250.000000	47.498	-18.6059
17500.000000	47.765	-2.8678
17750.000000	48.286	12.3774
18000.000000	49.044	26.7518
18250.000000	50.040	40.2415
18500.000000	51.267	52.2722
18750.000000	52.679	61.9492
19000.000000	54.204	68.4675
19250.000000	55.628	70.7975
19500.000000	56.653	69.0688
19750.000000	57.087	64.3163
