* Measurement data measured by REW V5.20.13
* Source: C:\Users\marcu\OneDrive\Desktop\audio_db\TinHiFi P1 Max Foam R.txt
* Format: Comma/Tab/Space delimited data
* Dated: May 29, 2023 8:27:36 AM
* REW Settings:
*  C-weighting compensation: Off
*  Target level: 75.0 dB
* Note: ; Measurement imported from C:\Users\marcu\OneDrive\Desktop\audio_db\TinHiFi P1 Max Foam R.txt Format: Comma/Tab/Space delimited data 54607 values loaded, 2 Hz to 20,000 Hz 
* Measurement: TinHiFi P1 Max Foam R
* Smoothing: None
* Frequency Step: 1/48 octave
* Start Frequency: 2.200 Hz
*
* Freq(Hz)	SPL(dB)
2.200000	59.036
2.240000	59.349
2.270000	59.583
2.300000	59.818
2.330000	60.052
2.360000	60.286
2.400000	60.599
2.430000	60.833
2.470000	61.146
2.500000	61.380
2.540000	61.693
2.580000	61.930
2.620000	62.029
2.650000	62.074
2.690000	62.099
2.720000	62.093
2.760000	62.056
2.800000	61.989
2.850000	61.868
2.900000	61.714
2.950000	61.532
3.000000	61.311
3.040000	61.104
3.070000	60.932
3.110000	60.681
3.150000	60.405
3.200000	60.027
3.250000	59.613
3.300000	59.165
3.350000	58.653
3.400000	58.073
3.450000	57.447
3.500000	56.801
3.550000	56.156
3.600000	55.537
3.650000	54.967
3.700000	54.428
3.750000	53.851
3.820000	53.043
3.870000	52.517
3.950000	51.869
4.000000	51.644
4.060000	51.619
4.120000	51.868
4.180000	52.319
4.250000	52.996
4.310000	53.616
4.370000	54.191
4.440000	54.759
4.500000	55.259
4.550000	55.682
4.620000	56.266
4.680000	56.742
4.750000	57.248
4.820000	57.693
4.870000	57.984
4.940000	58.358
5.000000	58.652
5.080000	59.011
5.150000	59.299
5.220000	59.556
5.300000	59.812
5.380000	60.034
5.450000	60.206
5.520000	60.359
5.600000	60.499
5.700000	60.633
5.800000	60.744
5.900000	60.852
6.000000	60.931
6.080000	60.989
6.150000	61.051
6.220000	61.138
6.300000	61.266
6.400000	61.454
6.500000	61.679
6.600000	61.948
6.700000	62.277
6.800000	62.652
6.900000	63.042
7.000000	63.422
7.100000	63.816
7.200000	64.208
7.300000	64.576
7.400000	64.904
7.500000	65.208
7.620000	65.536
7.750000	65.840
7.880000	66.086
8.000000	66.277
8.120000	66.445
8.250000	66.590
8.380000	66.719
8.500000	66.841
8.620000	66.955
8.750000	67.083
8.850000	67.191
9.000000	67.364
9.120000	67.507
9.250000	67.665
9.380000	67.829
9.500000	67.974
9.620000	68.109
9.750000	68.249
9.880000	68.367
10.000000	68.449
10.150000	68.524
10.300000	68.580
10.440000	68.612
10.600000	68.637
10.750000	68.658
10.900000	68.674
11.060000	68.695
11.200000	68.715
11.380000	68.742
11.500000	68.763
11.720000	68.803
11.800000	68.818
12.060000	68.868
12.200000	68.895
12.410000	68.942
12.500000	68.970
12.650000	69.027
12.800000	69.092
13.150000	69.262
13.200000	69.287
13.400000	69.392
13.600000	69.497
13.800000	69.598
14.000000	69.695
14.300000	69.832
14.500000	69.919
14.750000	70.029
15.000000	70.141
15.250000	70.258
15.500000	70.374
15.750000	70.486
16.000000	70.590
16.250000	70.685
16.500000	70.771
16.750000	70.845
17.000000	70.914
17.250000	70.980
17.500000	71.043
17.750000	71.103
18.000000	71.158
18.250000	71.206
18.500000	71.247
18.750000	71.282
19.000000	71.312
19.250000	71.340
19.500000	71.365
19.750000	71.390
20.000000	71.416
20.299999	71.447
20.600000	71.479
20.900000	71.513
21.200001	71.551
21.400000	71.580
21.799999	71.642
22.000000	71.676
22.400000	71.743
22.700001	71.790
23.000000	71.835
23.299999	71.876
23.600000	71.917
24.000000	71.971
24.299999	72.014
24.700001	72.073
25.000000	72.117
25.400000	72.168
25.799999	72.203
26.200001	72.223
26.500000	72.232
26.900000	72.244
27.200001	72.259
27.600000	72.286
28.000000	72.314
28.500000	72.340
29.000000	72.350
29.500000	72.358
30.000000	72.374
30.400000	72.395
30.700001	72.415
31.100000	72.439
31.500000	72.461
32.000000	72.483
32.500000	72.504
33.000000	72.528
33.500000	72.556
34.000000	72.576
34.500000	72.585
35.000000	72.587
35.500000	72.593
36.000000	72.605
36.500000	72.614
37.000000	72.617
37.500000	72.616
38.200001	72.620
38.700001	72.629
39.500000	72.650
40.000000	72.661
40.599998	72.665
41.200001	72.657
41.799999	72.649
42.500000	72.652
43.099998	72.663
43.700001	72.670
44.400002	72.671
45.000000	72.673
45.500000	72.673
46.200001	72.666
46.799999	72.661
47.500000	72.660
48.200001	72.659
48.700001	72.656
49.400002	72.651
50.000000	72.646
50.799999	72.639
51.500000	72.634
52.200001	72.628
53.000000	72.620
53.799999	72.612
54.500000	72.606
55.200001	72.595
56.000000	72.585
57.000000	72.579
58.000000	72.561
59.000000	72.552
60.000000	72.540
60.799999	72.519
61.500000	72.505
62.200001	72.499
63.000000	72.484
64.000000	72.463
65.000000	72.445
66.000000	72.422
67.000000	72.397
68.000000	72.376
69.000000	72.350
70.000000	72.322
71.000000	72.299
72.000000	72.279
73.000000	72.256
74.000000	72.231
75.000000	72.205
76.199997	72.176
77.500000	72.138
78.800003	72.103
80.000000	72.077
81.199997	72.048
82.500000	72.016
83.800003	71.985
85.000000	71.952
86.199997	71.917
87.500000	71.886
88.500000	71.861
90.000000	71.819
91.199997	71.786
92.500000	71.748
93.800003	71.710
95.000000	71.679
96.199997	71.646
97.500000	71.610
98.800003	71.573
100.000000	71.538
101.500000	71.497
103.000000	71.455
104.400002	71.415
106.000000	71.369
107.500000	71.326
109.000000	71.285
110.599998	71.241
112.000000	71.199
113.800003	71.146
115.000000	71.113
117.199997	71.050
118.000000	71.027
120.599998	70.954
122.000000	70.914
124.099998	70.856
125.000000	70.832
126.500000	70.793
128.000000	70.756
131.500000	70.669
132.000000	70.657
134.000000	70.609
136.000000	70.560
138.000000	70.509
140.000000	70.456
143.000000	70.384
145.000000	70.336
147.500000	70.275
150.000000	70.213
152.500000	70.153
155.000000	70.093
157.500000	70.031
160.000000	69.967
162.500000	69.897
165.000000	69.824
167.500000	69.750
170.000000	69.677
172.500000	69.606
175.000000	69.533
177.500000	69.463
180.000000	69.393
182.500000	69.323
185.000000	69.253
187.500000	69.184
190.000000	69.116
192.500000	69.048
195.000000	68.981
197.500000	68.914
200.000000	68.849
203.000000	68.774
206.000000	68.703
209.000000	68.632
212.000000	68.561
214.000000	68.514
218.000000	68.421
220.000000	68.376
224.000000	68.285
227.000000	68.216
230.000000	68.150
233.000000	68.083
236.000000	68.016
240.000000	67.929
243.000000	67.866
247.000000	67.781
250.000000	67.718
254.000000	67.634
258.000000	67.553
262.000000	67.473
265.000000	67.414
269.000000	67.337
272.000000	67.278
276.000000	67.199
280.000000	67.124
285.000000	67.032
290.000000	66.941
295.000000	66.851
300.000000	66.762
304.000000	66.690
307.000000	66.639
311.000000	66.572
315.000000	66.504
320.000000	66.420
325.000000	66.341
330.000000	66.260
335.000000	66.181
340.000000	66.104
345.000000	66.030
350.000000	65.957
355.000000	65.888
360.000000	65.821
365.000000	65.756
370.000000	65.694
375.000000	65.634
382.000000	65.555
387.000000	65.501
395.000000	65.423
400.000000	65.376
406.000000	65.328
412.000000	65.286
418.000000	65.248
425.000000	65.210
431.000000	65.186
437.000000	65.169
444.000000	65.155
450.000000	65.150
455.000000	65.151
462.000000	65.161
468.000000	65.176
475.000000	65.200
482.000000	65.232
487.000000	65.260
494.000000	65.305
500.000000	65.349
508.000000	65.415
515.000000	65.480
522.000000	65.548
530.000000	65.627
538.000000	65.706
545.000000	65.778
552.000000	65.851
560.000000	65.936
570.000000	66.035
580.000000	66.133
590.000000	66.225
600.000000	66.310
608.000000	66.374
615.000000	66.425
622.000000	66.473
630.000000	66.525
640.000000	66.586
650.000000	66.641
660.000000	66.690
670.000000	66.733
680.000000	66.773
690.000000	66.810
700.000000	66.845
710.000000	66.878
720.000000	66.908
730.000000	66.936
740.000000	66.966
750.000000	66.995
762.000000	67.033
775.000000	67.077
788.000000	67.128
800.000000	67.177
812.000000	67.226
825.000000	67.285
838.000000	67.350
850.000000	67.413
862.000000	67.480
875.000000	67.555
885.000000	67.613
900.000000	67.699
912.000000	67.768
925.000000	67.842
938.000000	67.917
950.000000	67.987
962.000000	68.059
975.000000	68.137
988.000000	68.218
1000.000000	68.297
1015.000000	68.406
1030.000000	68.521
1044.000000	68.629
1060.000000	68.756
1075.000000	68.873
1090.000000	68.991
1106.000000	69.117
1120.000000	69.227
1138.000000	69.365
1150.000000	69.458
1172.000000	69.625
1180.000000	69.684
1206.000000	69.875
1220.000000	69.977
1241.000000	70.120
1250.000000	70.176
1265.000000	70.258
1280.000000	70.330
1315.000000	70.481
1320.000000	70.499
1340.000000	70.569
1360.000000	70.625
1380.000000	70.665
1400.000000	70.689
1430.000000	70.703
1450.000000	70.707
1475.000000	70.718
1500.000000	70.745
1525.000000	70.790
1550.000000	70.854
1575.000000	70.931
1600.000000	71.025
1625.000000	71.144
1650.000000	71.271
1675.000000	71.399
1700.000000	71.523
1725.000000	71.644
1750.000000	71.760
1775.000000	71.871
1800.000000	71.977
1825.000000	72.080
1850.000000	72.176
1875.000000	72.267
1900.000000	72.353
1925.000000	72.434
1950.000000	72.512
1975.000000	72.588
2000.000000	72.663
2030.000000	72.754
2060.000000	72.854
2090.000000	72.962
2120.000000	73.070
2140.000000	73.138
2180.000000	73.248
2200.000000	73.289
2240.000000	73.341
2270.000000	73.358
2300.000000	73.360
2330.000000	73.346
2360.000000	73.314
2400.000000	73.235
2430.000000	73.143
2470.000000	72.968
2500.000000	72.794
2540.000000	72.501
2580.000000	72.129
2620.000000	71.668
2650.000000	71.289
2690.000000	70.813
2720.000000	70.541
2760.000000	70.343
2800.000000	70.337
2850.000000	70.514
2900.000000	70.745
2950.000000	70.918
3000.000000	71.012
3040.000000	71.039
3070.000000	71.042
3110.000000	71.032
3150.000000	71.015
3200.000000	70.994
3250.000000	70.975
3300.000000	70.963
3350.000000	70.959
3400.000000	70.967
3450.000000	70.993
3500.000000	71.032
3550.000000	71.067
3600.000000	71.076
3650.000000	71.049
3700.000000	70.987
3750.000000	70.899
3820.000000	70.744
3870.000000	70.639
3950.000000	70.545
4000.000000	70.529
4060.000000	70.532
4120.000000	70.553
4180.000000	70.592
4250.000000	70.662
4310.000000	70.730
4370.000000	70.783
4440.000000	70.811
4500.000000	70.795
4550.000000	70.738
4620.000000	70.568
4680.000000	70.313
4750.000000	69.882
4820.000000	69.442
4870.000000	69.278
4940.000000	69.338
5000.000000	69.532
5080.000000	69.764
5150.000000	69.883
5220.000000	69.937
5300.000000	69.954
5380.000000	69.990
5450.000000	70.078
5520.000000	70.176
5600.000000	70.225
5700.000000	70.173
5800.000000	70.024
5900.000000	69.837
6000.000000	69.688
6080.000000	69.568
6150.000000	69.452
6220.000000	69.358
6300.000000	69.300
6400.000000	69.288
6500.000000	69.287
6600.000000	69.269
6700.000000	69.212
6800.000000	69.113
6900.000000	68.994
7000.000000	68.888
7100.000000	68.828
7200.000000	68.819
7300.000000	68.859
7400.000000	69.009
7500.000000	69.341
7620.000000	69.895
7750.000000	70.519
7880.000000	71.120
8000.000000	71.663
8120.000000	72.179
8250.000000	72.658
8380.000000	73.011
8500.000000	73.440
8620.000000	74.356
8750.000000	75.456
8850.000000	75.647
9000.000000	74.743
9120.000000	73.543
9250.000000	72.187
9380.000000	70.929
9500.000000	69.928
9620.000000	69.108
9750.000000	68.403
9880.000000	67.856
10000.000000	67.460
10150.000000	67.059
10300.000000	66.755
10440.000000	66.664
10600.000000	66.861
10750.000000	67.266
10900.000000	67.745
11060.000000	68.186
11200.000000	68.427
11380.000000	68.465
11500.000000	68.361
11720.000000	68.224
11800.000000	68.237
12060.000000	68.357
12200.000000	68.358
12410.000000	68.192
12500.000000	68.064
12650.000000	67.826
12800.000000	67.620
13150.000000	66.956
13200.000000	66.792
13400.000000	65.916
13600.000000	64.716
13800.000000	63.413
14000.000000	62.414
14300.000000	61.645
14500.000000	61.257
14750.000000	60.750
15000.000000	60.281
15250.000000	59.800
15500.000000	59.181
15750.000000	58.328
16000.000000	57.226
16250.000000	56.055
16500.000000	55.339
16750.000000	55.551
17000.000000	56.250
17250.000000	56.938
17500.000000	57.537
17750.000000	58.169
18000.000000	58.865
18250.000000	59.535
18500.000000	60.109
18750.000000	60.630
19000.000000	61.144
19250.000000	61.460
19500.000000	61.296
19750.000000	60.603
